# CANOPUS background
#
# Assumes 6% emissivity for Science Fold and
# AO Fold (estimated)
#
# File based on measurements performed during the
# Nfiraos IRIS commissioning. Values below 1800nm are
# from ALTAIR background file. Values above 1800nm
# are from the on-sky Nfiraos/IRIS commissioning.
# Data obtained 2012 April 06/07/08.
#
# author: Rodrigo Carrasco
# created: 06 August 12
#
#  Wavelength        Flux density
#  (nm)          (ph/sec/nm/arcsec2/m2)
     900         4.752E-14
   900.5          4.92E-14
     901         5.064E-14
   901.5         5.208E-14
     902         5.376E-14
   902.5         5.544E-14
     903         5.712E-14
   903.5          5.88E-14
     904         6.072E-14
   904.5          6.24E-14
     905         6.432E-14
   905.5         6.624E-14
     906          6.84E-14
   906.5         7.032E-14
     907         7.248E-14
   907.5         7.464E-14
     908         7.704E-14
   908.5         7.944E-14
     909         8.184E-14
   909.5         8.424E-14
     910         8.664E-14
   910.5         8.928E-14
     911         9.192E-14
   911.5          9.48E-14
     912         9.768E-14
   912.5        1.0056E-13
     913        1.0344E-13
   913.5        1.0656E-13
     914        1.0968E-13
   914.5        1.1304E-13
     915         1.164E-13
   915.5           1.2E-13
     916        1.2336E-13
   916.5         1.272E-13
     917         1.308E-13
   917.5        1.3464E-13
     918        1.3872E-13
   918.5         1.428E-13
     919        1.4712E-13
   919.5        1.5144E-13
     920        1.5576E-13
   920.5        1.6032E-13
     921        1.6512E-13
   921.5        1.6992E-13
     922        1.7496E-13
   922.5           1.8E-13
     923        1.8528E-13
   923.5        1.9056E-13
     924        1.9608E-13
   924.5        2.0184E-13
     925        2.0784E-13
   925.5        2.1384E-13
     926        2.2008E-13
   926.5        2.2632E-13
     927        2.3304E-13
   927.5        2.3976E-13
     928         2.472E-13
   928.5         2.544E-13
     929         2.616E-13
   929.5         2.688E-13
     930          2.76E-13
   930.5         2.832E-13
     931         2.928E-13
   931.5             3E-13
     932         3.096E-13
   932.5         3.192E-13
     933         3.264E-13
   933.5          3.36E-13
     934         3.456E-13
   934.5         3.552E-13
     935         3.672E-13
   935.5         3.768E-13
     936         3.864E-13
   936.5         3.984E-13
     937         4.104E-13
   937.5           4.2E-13
     938          4.32E-13
   938.5          4.44E-13
     939         4.584E-13
   939.5         4.704E-13
     940         4.848E-13
   940.5         4.968E-13
     941         5.112E-13
   941.5         5.256E-13
     942           5.4E-13
   942.5         5.544E-13
     943         5.712E-13
   943.5         5.856E-13
     944         6.024E-13
   944.5         6.192E-13
     945          6.36E-13
   945.5         6.552E-13
     946          6.72E-13
   946.5         6.912E-13
     947         7.104E-13
   947.5         7.296E-13
     948         7.512E-13
   948.5         7.704E-13
     949          7.92E-13
   949.5         8.136E-13
     950         8.376E-13
   950.5         8.592E-13
     951         8.832E-13
   951.5         9.072E-13
     952         9.312E-13
   952.5         9.576E-13
     953          9.84E-13
   953.5        1.0104E-12
     954        1.0368E-12
   954.5        1.0656E-12
     955        1.0944E-12
   955.5        1.1256E-12
     956        1.1544E-12
   956.5        1.1856E-12
     957        1.2192E-12
   957.5        1.2528E-12
     958        1.2864E-12
   958.5          1.32E-12
     959         1.356E-12
   959.5         1.392E-12
     960        1.4304E-12
   960.5        1.4688E-12
     961        1.5072E-12
   961.5         1.548E-12
     962        1.5888E-12
   962.5         1.632E-12
     963        1.6752E-12
   963.5        1.7208E-12
     964        1.7664E-12
   964.5         1.812E-12
     965          1.86E-12
   965.5        1.9104E-12
     966        1.9608E-12
   966.5        2.0136E-12
     967        2.0664E-12
   967.5        2.1216E-12
     968        2.1768E-12
   968.5        2.2344E-12
     969        2.2944E-12
   969.5        2.3544E-12
     970         2.424E-12
   970.5         2.472E-12
     971         2.544E-12
   971.5         2.616E-12
     972         2.688E-12
   972.5          2.76E-12
     973         2.832E-12
   973.5         2.904E-12
     974         2.976E-12
   974.5         3.048E-12
     975          3.12E-12
   975.5         3.216E-12
     976         3.288E-12
   976.5         3.384E-12
     977         3.456E-12
   977.5         3.552E-12
     978         3.648E-12
   978.5         3.744E-12
     979          3.84E-12
   979.5         3.936E-12
     980         4.032E-12
   980.5         4.152E-12
     981         4.248E-12
   981.5         4.344E-12
     982         4.464E-12
   982.5         4.584E-12
     983         4.704E-12
   983.5         4.824E-12
     984         4.944E-12
   984.5         5.064E-12
     985         5.208E-12
   985.5         5.328E-12
     986         5.472E-12
   986.5         5.592E-12
     987         5.736E-12
   987.5          5.88E-12
     988         6.048E-12
   988.5         6.192E-12
     989          6.36E-12
   989.5         6.504E-12
     990         6.672E-12
   990.5          6.84E-12
     991         7.008E-12
   991.5           7.2E-12
     992         7.368E-12
   992.5          7.56E-12
     993         7.752E-12
   993.5         7.944E-12
     994         8.136E-12
   994.5         8.328E-12
     995         8.544E-12
   995.5          8.76E-12
     996         8.976E-12
   996.5         9.192E-12
     997         9.432E-12
   997.5         9.672E-12
     998         9.912E-12
   998.5        1.0152E-11
     999        1.0392E-11
   999.5        1.0656E-11
    1000         1.092E-11
  1000.5        1.1184E-11
    1001        1.1448E-11
  1001.5        1.1736E-11
    1002        1.2024E-11
  1002.5        1.2336E-11
    1003        1.2624E-11
  1003.5        1.2936E-11
    1004        1.3248E-11
  1004.5        1.3584E-11
    1005        1.3896E-11
  1005.5        1.4256E-11
    1006        1.4592E-11
  1006.5        1.4952E-11
    1007        1.5312E-11
  1007.5        1.5696E-11
    1008        1.6056E-11
  1008.5        1.6464E-11
    1009        1.6848E-11
  1009.5        1.7256E-11
    1010        1.7688E-11
  1010.5        1.8096E-11
    1011        1.8528E-11
  1011.5        1.8984E-11
    1012         1.944E-11
  1012.5         1.992E-11
    1013        2.0376E-11
  1013.5         2.088E-11
    1014        2.1384E-11
  1014.5        2.1888E-11
    1015        2.2416E-11
  1015.5        2.2944E-11
    1016        2.3496E-11
  1016.5           2.4E-11
    1017         2.472E-11
  1017.5          2.52E-11
    1018         2.592E-11
  1018.5          2.64E-11
    1019         2.712E-11
  1019.5          2.76E-11
    1020         2.832E-11
  1020.5         2.904E-11
    1021         2.976E-11
  1021.5         3.048E-11
    1022          3.12E-11
  1022.5         3.192E-11
    1023         3.264E-11
  1023.5         3.336E-11
    1024         3.408E-11
  1024.5         3.504E-11
    1025         3.576E-11
  1025.5         3.648E-11
    1026         3.744E-11
  1026.5          3.84E-11
    1027         3.912E-11
  1027.5         4.008E-11
    1028         4.104E-11
  1028.5           4.2E-11
    1029         4.296E-11
  1029.5         4.392E-11
    1030         4.512E-11
  1030.5         4.608E-11
    1031         4.704E-11
  1031.5         4.824E-11
    1032         4.944E-11
  1032.5          5.04E-11
    1033          5.16E-11
  1033.5          5.28E-11
    1034           5.4E-11
  1034.5          5.52E-11
    1035         5.664E-11
  1035.5         5.784E-11
    1036         5.904E-11
  1036.5         6.048E-11
    1037         6.192E-11
  1037.5         6.336E-11
    1038          6.48E-11
  1038.5         6.624E-11
    1039         6.768E-11
  1039.5         6.936E-11
    1040          7.08E-11
  1040.5         7.248E-11
    1041         7.416E-11
  1041.5         7.584E-11
    1042         7.752E-11
  1042.5          7.92E-11
    1043         8.112E-11
  1043.5          8.28E-11
    1044         8.472E-11
  1044.5         8.664E-11
    1045         8.856E-11
  1045.5         9.048E-11
    1046         9.264E-11
  1046.5         9.456E-11
    1047         9.672E-11
  1047.5         9.888E-11
    1048        1.0104E-10
  1048.5        1.0344E-10
    1049         1.056E-10
  1049.5          1.08E-10
    1050         1.104E-10
  1050.5        1.1304E-10
    1051        1.1544E-10
  1051.5        1.1808E-10
    1052        1.2072E-10
  1052.5        1.2336E-10
    1053          1.26E-10
  1053.5        1.2888E-10
    1054        1.3152E-10
  1054.5        1.3464E-10
    1055        1.3752E-10
  1055.5        1.4064E-10
    1056        1.4352E-10
  1056.5        1.4688E-10
    1057           1.5E-10
  1057.5        1.5336E-10
    1058        1.5672E-10
  1058.5        1.6008E-10
    1059        1.6368E-10
  1059.5        1.6704E-10
    1060        1.7088E-10
  1060.5        1.7448E-10
    1061        1.7832E-10
  1061.5        1.8216E-10
    1062        1.8624E-10
  1062.5        1.9008E-10
    1063         1.944E-10
  1063.5        1.9848E-10
    1064         2.028E-10
  1064.5        2.0712E-10
    1065        2.1168E-10
  1065.5        2.1624E-10
    1066         2.208E-10
  1066.5         2.256E-10
    1067         2.304E-10
  1067.5        2.3544E-10
    1068           2.4E-10
  1068.5         2.448E-10
    1069          2.52E-10
  1069.5         2.568E-10
    1070         2.616E-10
  1070.5         2.664E-10
    1071         2.736E-10
  1071.5         2.784E-10
    1072         2.856E-10
  1072.5         2.904E-10
    1073         2.976E-10
  1073.5         3.024E-10
    1074         3.096E-10
  1074.5         3.168E-10
    1075          3.24E-10
  1075.5         3.288E-10
    1076          3.36E-10
  1076.5         3.432E-10
    1077         3.504E-10
  1077.5         3.576E-10
    1078         3.672E-10
  1078.5         3.744E-10
    1079         3.816E-10
  1079.5         3.888E-10
    1080         3.984E-10
  1080.5         4.056E-10
    1081         4.152E-10
  1081.5         4.224E-10
    1082          4.32E-10
  1082.5         4.416E-10
    1083         4.512E-10
  1083.5         4.608E-10
    1084         4.704E-10
  1084.5           4.8E-10
    1085         4.896E-10
  1085.5         4.992E-10
    1086         5.088E-10
  1086.5         5.208E-10
    1087         5.304E-10
  1087.5         5.424E-10
    1088          5.52E-10
  1088.5          5.64E-10
    1089          5.76E-10
  1089.5          5.88E-10
    1090             6E-10
  1090.5          6.12E-10
    1091          6.24E-10
  1091.5         6.384E-10
    1092         6.504E-10
  1092.5         6.648E-10
    1093         6.768E-10
  1093.5         6.912E-10
    1094         7.056E-10
  1094.5           7.2E-10
    1095         7.344E-10
  1095.5         7.488E-10
    1096         7.656E-10
  1096.5           7.8E-10
    1097         7.968E-10
  1097.5         8.136E-10
    1098          8.28E-10
  1098.5         8.448E-10
    1099          8.64E-10
  1099.5         8.808E-10
    1100         8.976E-10
  1100.5         9.168E-10
    1101         9.336E-10
  1101.5         9.528E-10
    1102          9.72E-10
  1102.5         9.912E-10
    1103        1.0128E-09
  1103.5         1.032E-09
    1104        1.0536E-09
  1104.5        1.0752E-09
    1105        1.0944E-09
  1105.5        1.1184E-09
    1106          1.14E-09
  1106.5        1.1616E-09
    1107        1.1856E-09
  1107.5        1.2096E-09
    1108        1.2336E-09
  1108.5        1.2576E-09
    1109        1.2816E-09
  1109.5         1.308E-09
    1110        1.3344E-09
  1110.5        1.3608E-09
    1111        1.3872E-09
  1111.5        1.4136E-09
    1112        1.4424E-09
  1112.5        1.4712E-09
    1113           1.5E-09
  1113.5        1.5288E-09
    1114          1.56E-09
  1114.5        1.5888E-09
    1115          1.62E-09
  1115.5        1.6536E-09
    1116        1.6848E-09
  1116.5        1.7184E-09
    1117         1.752E-09
  1117.5        1.7856E-09
    1118        1.8192E-09
  1118.5        1.8552E-09
    1119        1.8912E-09
  1119.5        1.9296E-09
    1120        1.9656E-09
  1120.5         2.004E-09
    1121        2.0424E-09
  1121.5        2.0832E-09
    1122         2.124E-09
  1122.5        2.1648E-09
    1123        2.2056E-09
  1123.5        2.2488E-09
    1124         2.292E-09
  1124.5        2.3352E-09
    1125        2.3808E-09
  1125.5         2.424E-09
    1126         2.472E-09
  1126.5          2.52E-09
    1127         2.568E-09
  1127.5         2.616E-09
    1128         2.664E-09
  1128.5         2.712E-09
    1129          2.76E-09
  1129.5         2.832E-09
    1130          2.88E-09
  1130.5         2.928E-09
    1131       0.000000003
  1131.5         3.048E-09
    1132         3.096E-09
  1132.5         3.168E-09
    1133         3.216E-09
  1133.5         3.288E-09
    1134         3.336E-09
  1134.5         3.408E-09
    1135          3.48E-09
  1135.5         3.528E-09
    1136           3.6E-09
  1136.5         3.672E-09
    1137         3.744E-09
  1137.5         3.816E-09
    1138         3.888E-09
  1138.5          3.96E-09
    1139         4.032E-09
  1139.5         4.104E-09
    1140         4.176E-09
  1140.5         4.272E-09
    1141         4.344E-09
  1141.5         4.416E-09
    1142         4.512E-09
  1142.5         4.584E-09
    1143          4.68E-09
  1143.5         4.752E-09
    1144         4.848E-09
  1144.5         4.944E-09
    1145          5.04E-09
  1145.5         5.112E-09
    1146         5.208E-09
  1146.5         5.304E-09
    1147           5.4E-09
  1147.5          5.52E-09
    1148         5.616E-09
  1148.5         5.712E-09
    1149         5.832E-09
  1149.5         5.928E-09
    1150         6.048E-09
  1150.5         6.144E-09
    1151         6.264E-09
  1151.5         6.384E-09
    1152          6.48E-09
  1152.5           6.6E-09
    1153          6.72E-09
  1153.5         6.864E-09
    1154         6.984E-09
  1154.5         7.104E-09
    1155         7.224E-09
  1155.5         7.368E-09
    1156         7.512E-09
  1156.5         7.632E-09
    1157         7.776E-09
  1157.5          7.92E-09
    1158         8.064E-09
  1158.5         8.208E-09
    1159         8.352E-09
  1159.5         8.496E-09
    1160         8.664E-09
  1160.5         8.808E-09
    1161         8.976E-09
  1161.5         9.144E-09
    1162         9.288E-09
  1162.5         9.456E-09
    1163         9.624E-09
  1163.5         9.816E-09
    1164         9.984E-09
  1164.5        1.0152E-08
    1165        1.0344E-08
  1165.5        1.0536E-08
    1166        1.0704E-08
  1166.5        1.0896E-08
    1167        1.1088E-08
  1167.5        1.1304E-08
    1168        1.1496E-08
  1168.5        1.1712E-08
    1169        1.1904E-08
  1169.5         1.212E-08
    1170        1.2336E-08
  1170.5        1.2552E-08
    1171        1.2768E-08
  1171.5        1.3008E-08
    1172        1.3224E-08
  1172.5        1.3464E-08
    1173        1.3704E-08
  1173.5        1.3944E-08
    1174        1.4184E-08
  1174.5        1.4424E-08
    1175        1.4688E-08
  1175.5        1.4952E-08
    1176        1.5216E-08
  1176.5         1.548E-08
    1177        1.5744E-08
  1177.5        1.6008E-08
    1178        1.6296E-08
  1178.5        1.6584E-08
    1179        1.6872E-08
  1179.5         1.716E-08
    1180        1.7472E-08
  1180.5         1.776E-08
    1181        1.8072E-08
  1181.5        1.8384E-08
    1182        1.8696E-08
  1182.5        1.9032E-08
    1183        1.9368E-08
  1183.5        1.9704E-08
    1184         2.004E-08
  1184.5        2.0376E-08
    1185        2.0736E-08
  1185.5        2.1096E-08
    1186        2.1456E-08
  1186.5        2.1816E-08
    1187          2.22E-08
  1187.5        2.2584E-08
    1188        2.2968E-08
  1188.5        2.3352E-08
    1189         2.376E-08
  1189.5         2.424E-08
    1190         2.448E-08
  1190.5         2.496E-08
    1191         2.544E-08
  1191.5         2.592E-08
    1192          2.64E-08
  1192.5         2.664E-08
    1193         2.712E-08
  1193.5          2.76E-08
    1194         2.808E-08
  1194.5         2.856E-08
    1195         2.904E-08
  1195.5         2.952E-08
    1196        0.00000003
  1196.5         3.048E-08
    1197          3.12E-08
  1197.5         3.168E-08
    1198         3.216E-08
  1198.5         3.264E-08
    1199         3.336E-08
  1199.5         3.384E-08
    1200         3.432E-08
  1200.5         3.504E-08
    1201         3.552E-08
  1201.5         3.624E-08
    1202         3.672E-08
  1202.5         3.744E-08
    1203         3.792E-08
  1203.5         3.864E-08
    1204         3.936E-08
  1204.5         3.984E-08
    1205         4.056E-08
  1205.5         4.128E-08
    1206       0.000000042
  1206.5         4.272E-08
    1207         4.344E-08
  1207.5         4.392E-08
    1208         4.488E-08
  1208.5          4.56E-08
    1209         4.632E-08
  1209.5         4.704E-08
    1210         4.776E-08
  1210.5         4.848E-08
    1211         4.944E-08
  1211.5         5.016E-08
    1212         5.112E-08
  1212.5         5.184E-08
    1213          5.28E-08
  1213.5         5.352E-08
    1214         5.448E-08
  1214.5         5.544E-08
    1215         5.616E-08
  1215.5         5.712E-08
    1216         5.808E-08
  1216.5         5.904E-08
    1217        0.00000006
  1217.5         6.096E-08
    1218         6.192E-08
  1218.5         6.288E-08
    1219         6.408E-08
  1219.5         6.504E-08
    1220       0.000000066
  1220.5          6.72E-08
    1221         6.816E-08
  1221.5         6.936E-08
    1222         7.056E-08
  1222.5         7.152E-08
    1223         7.272E-08
  1223.5         7.392E-08
    1224         7.512E-08
  1224.5         7.632E-08
    1225         7.752E-08
  1225.5         7.872E-08
    1226         8.016E-08
  1226.5         8.136E-08
    1227         8.256E-08
  1227.5       0.000000084
    1228          8.52E-08
  1228.5         8.664E-08
    1229         8.808E-08
  1229.5         8.952E-08
    1230         9.096E-08
  1230.5          9.24E-08
    1231         9.384E-08
  1231.5         9.528E-08
    1232         9.672E-08
  1232.5          9.84E-08
    1233         9.984E-08
  1233.5        1.0152E-07
    1234         1.032E-07
  1234.5        1.0464E-07
    1235        1.0632E-07
  1235.5       0.000000108
    1236        1.0968E-07
  1236.5         1.116E-07
    1237        1.1328E-07
  1237.5        1.1496E-07
    1238        1.1688E-07
  1238.5        1.1856E-07
    1239        1.2048E-07
  1239.5         1.224E-07
    1240        1.2432E-07
  1240.5        1.2624E-07
    1241        1.2816E-07
  1241.5        1.3032E-07
    1242        1.3224E-07
  1242.5         1.344E-07
    1243        1.3632E-07
  1243.5        1.3848E-07
    1244        1.4064E-07
  1244.5         1.428E-07
    1245         1.452E-07
  1245.5        1.4736E-07
    1246        1.4952E-07
  1246.5        1.5192E-07
    1247        1.5432E-07
  1247.5        1.5672E-07
    1248        1.5912E-07
  1248.5        1.6152E-07
    1249        1.6416E-07
  1249.5        1.6656E-07
    1250         1.692E-07
  1250.5        1.7184E-07
    1251        1.7448E-07
  1251.5        1.7712E-07
    1252        1.7976E-07
  1252.5        1.8264E-07
    1253        1.8528E-07
  1253.5        1.8816E-07
    1254        1.9104E-07
  1254.5        1.9392E-07
    1255         1.968E-07
  1255.5        1.9992E-07
    1256        2.0304E-07
  1256.5        2.0616E-07
    1257        2.0928E-07
  1257.5         2.124E-07
    1258        2.1552E-07
  1258.5        2.1888E-07
    1259        2.2224E-07
  1259.5         2.256E-07
    1260        2.2896E-07
  1260.5        2.3232E-07
    1261        2.3592E-07
  1261.5        2.3952E-07
    1262         2.424E-07
  1262.5         2.472E-07
    1263         2.496E-07
  1263.5         2.544E-07
    1264         2.592E-07
  1264.5         2.616E-07
    1265         2.664E-07
  1265.5         2.688E-07
    1266         2.736E-07
  1266.5         2.784E-07
    1267         2.832E-07
  1267.5         2.856E-07
    1268         2.904E-07
  1268.5         2.952E-07
    1269         0.0000003
  1269.5         3.048E-07
    1270         3.072E-07
  1270.5       0.000000312
    1271         3.168E-07
  1271.5         3.216E-07
    1272         3.264E-07
  1272.5         3.312E-07
    1273       0.000000336
  1273.5         3.408E-07
    1274       0.000000348
  1274.5         3.528E-07
    1275         3.576E-07
  1275.5         3.624E-07
    1276         3.672E-07
  1276.5         3.744E-07
    1277         3.792E-07
  1277.5       0.000000384
    1278         3.888E-07
  1278.5       0.000000396
    1279         4.008E-07
  1279.5       0.000000408
    1280         4.128E-07
  1280.5        0.00000042
    1281         4.248E-07
  1281.5       0.000000432
    1282         4.368E-07
  1282.5       0.000000444
    1283         4.512E-07
  1283.5         4.584E-07
    1284         4.632E-07
  1284.5         4.704E-07
    1285         4.776E-07
  1285.5         4.848E-07
    1286       0.000000492
  1286.5         4.992E-07
    1287         5.064E-07
  1287.5         5.136E-07
    1288         5.208E-07
  1288.5       0.000000528
    1289         5.352E-07
  1289.5         5.424E-07
    1290       0.000000552
  1290.5         5.592E-07
    1291         5.664E-07
  1291.5       0.000000576
    1292         5.832E-07
  1292.5         5.928E-07
    1293         0.0000006
  1293.5         6.096E-07
    1294         6.168E-07
  1294.5         6.264E-07
    1295       0.000000636
  1295.5         6.456E-07
    1296         6.528E-07
  1296.5         6.624E-07
    1297       0.000000672
  1297.5         6.816E-07
    1298         6.912E-07
  1298.5         7.008E-07
    1299         7.104E-07
  1299.5         7.224E-07
    1300       0.000000732
  1300.5         7.416E-07
    1301         7.536E-07
  1301.5         7.632E-07
    1302         7.752E-07
  1302.5         7.848E-07
    1303         7.968E-07
  1303.5         8.064E-07
    1304         8.184E-07
  1304.5         8.304E-07
    1305         8.424E-07
  1305.5         8.544E-07
    1306         8.664E-07
  1306.5         8.784E-07
    1307         8.904E-07
  1307.5         9.024E-07
    1308         9.144E-07
  1308.5         9.288E-07
    1309         9.408E-07
  1309.5         9.528E-07
    1310         9.672E-07
  1310.5         9.816E-07
    1311         9.936E-07
  1311.5       0.000001008
    1312        1.0224E-06
  1312.5        1.0368E-06
    1313        1.0512E-06
  1313.5        1.0656E-06
    1314        0.00000108
  1314.5        1.0944E-06
    1315        1.1088E-06
  1315.5        1.1256E-06
    1316        0.00000114
  1316.5        1.1568E-06
    1317        1.1736E-06
  1317.5       0.000001188
    1318        1.2048E-06
  1318.5        1.2216E-06
    1319        1.2384E-06
  1319.5        1.2552E-06
    1320       0.000001272
  1320.5        1.2888E-06
    1321       0.000001308
  1321.5        1.3248E-06
    1322       0.000001344
  1322.5        1.3608E-06
    1323        0.00000138
  1323.5        1.3992E-06
    1324        1.4184E-06
  1324.5        1.4376E-06
    1325        1.4568E-06
  1325.5       0.000001476
    1326        1.4976E-06
  1326.5        1.5168E-06
    1327        1.5384E-06
  1327.5        1.5576E-06
    1328        1.5792E-06
  1328.5        1.6008E-06
    1329        1.6224E-06
  1329.5       0.000001644
    1330       0.000001668
  1330.5        1.6896E-06
    1331        1.7112E-06
  1331.5        1.7352E-06
    1332        1.7592E-06
  1332.5        1.7832E-06
    1333        1.8072E-06
  1333.5        1.8312E-06
    1334        1.8552E-06
  1334.5        1.8792E-06
    1335        1.9056E-06
  1335.5        1.9296E-06
    1336       0.000001956
  1336.5        1.9824E-06
    1337        2.0088E-06
  1337.5        2.0352E-06
    1338        2.0616E-06
  1338.5        2.0904E-06
    1339        2.1168E-06
  1339.5        2.1456E-06
    1340        2.1744E-06
  1340.5        2.2032E-06
    1341       0.000002232
  1341.5        2.2632E-06
    1342       0.000002292
  1342.5        2.3232E-06
    1343       0.000002352
  1343.5        2.3832E-06
    1344       0.000002424
  1344.5       0.000002448
    1345       0.000002472
  1345.5        0.00000252
    1346       0.000002544
  1346.5       0.000002568
    1347       0.000002616
  1347.5        0.00000264
    1348       0.000002688
  1348.5       0.000002712
    1349        0.00000276
  1349.5       0.000002784
    1350       0.000002832
  1350.5       0.000002856
    1351       0.000002904
  1351.5       0.000002928
    1352       0.000002976
  1352.5       0.000003024
    1353       0.000003048
  1353.5       0.000003096
    1354       0.000003144
  1354.5       0.000003168
    1355       0.000003216
  1355.5       0.000003264
    1356       0.000003288
  1356.5       0.000003336
    1357       0.000003384
  1357.5       0.000003432
    1358        0.00000348
  1358.5       0.000003528
    1359       0.000003552
  1359.5         0.0000036
    1360       0.000003648
  1360.5       0.000003696
    1361       0.000003744
  1361.5       0.000003792
    1362        0.00000384
  1362.5       0.000003888
    1363       0.000003936
  1363.5       0.000003984
    1364       0.000004056
  1364.5       0.000004104
    1365       0.000004152
  1365.5         0.0000042
    1366       0.000004248
  1366.5        0.00000432
    1367       0.000004368
  1367.5       0.000004416
    1368       0.000004488
  1368.5       0.000004536
    1369       0.000004584
  1369.5       0.000004656
    1370       0.000004704
  1370.5       0.000004776
    1371       0.000004824
  1371.5       0.000004896
    1372       0.000004944
  1372.5       0.000005016
    1373       0.000005088
  1373.5       0.000005136
    1374       0.000005208
  1374.5        0.00000528
    1375       0.000005328
  1375.5         0.0000054
    1376       0.000005472
  1376.5       0.000005544
    1377       0.000005616
  1377.5       0.000005688
    1378        0.00000576
  1378.5       0.000005832
    1379       0.000005904
  1379.5       0.000005976
    1380       0.000006048
  1380.5        0.00000612
    1381       0.000006192
  1381.5       0.000006264
    1382        0.00000636
  1382.5       0.000006432
    1383       0.000006504
  1383.5         0.0000066
    1384       0.000006672
  1384.5       0.000006744
    1385        0.00000684
  1385.5       0.000006912
    1386       0.000007008
  1386.5       0.000007104
    1387       0.000007176
  1387.5       0.000007272
    1388       0.000007368
  1388.5        0.00000744
    1389       0.000007536
  1389.5       0.000007632
    1390       0.000007728
  1390.5       0.000007824
    1391        0.00000792
  1391.5       0.000008016
    1392       0.000008112
  1392.5       0.000008208
    1393       0.000008304
  1393.5       0.000008424
    1394        0.00000852
  1394.5       0.000008616
    1395       0.000008736
  1395.5       0.000008832
    1396       0.000008952
  1396.5       0.000009048
    1397       0.000009168
  1397.5       0.000009264
    1398       0.000009384
  1398.5       0.000009504
    1399       0.000009624
  1399.5        0.00000972
    1400        0.00000984
  1400.5        0.00000996
    1401        0.00001008
  1401.5         0.0000102
    1402        0.00001032
  1402.5       0.000010464
    1403       0.000010584
  1403.5       0.000010704
    1404       0.000010848
  1404.5       0.000010968
    1405       0.000011088
  1405.5       0.000011232
    1406       0.000011376
  1406.5       0.000011496
    1407        0.00001164
  1407.5       0.000011784
    1408       0.000011928
  1408.5       0.000012072
    1409       0.000012216
  1409.5        0.00001236
    1410       0.000012504
  1410.5       0.000012648
    1411       0.000012792
  1411.5        0.00001296
    1412       0.000013104
  1412.5       0.000013272
    1413       0.000013416
  1413.5       0.000013584
    1414       0.000013728
  1414.5       0.000013896
    1415       0.000014064
  1415.5       0.000014232
    1416         0.0000144
  1416.5       0.000014568
    1417       0.000014736
  1417.5       0.000014904
    1418       0.000015096
  1418.5       0.000015264
    1419       0.000015456
  1419.5       0.000015624
    1420       0.000015816
  1420.5       0.000016008
    1421       0.000016176
  1421.5       0.000016368
    1422        0.00001656
  1422.5       0.000016752
    1423       0.000016944
  1423.5        0.00001716
    1424       0.000017352
  1424.5       0.000017544
    1425        0.00001776
  1425.5       0.000017976
    1426       0.000018168
  1426.5       0.000018384
    1427         0.0000186
  1427.5       0.000018816
    1428       0.000019032
  1428.5       0.000019248
    1429       0.000019464
  1429.5       0.000019704
    1430        0.00001992
  1430.5        0.00002016
    1431         0.0000204
  1431.5       0.000020616
    1432       0.000020856
  1432.5       0.000021096
    1433       0.000021336
  1433.5         0.0000216
    1434        0.00002184
  1434.5        0.00002208
    1435       0.000022344
  1435.5       0.000022608
    1436       0.000022872
  1436.5       0.000023112
    1437       0.000023376
  1437.5       0.000023664
    1438       0.000023928
  1438.5        0.00002424
    1439        0.00002448
  1439.5        0.00002472
    1440        0.00002496
  1440.5         0.0000252
    1441        0.00002568
  1441.5        0.00002592
    1442        0.00002616
  1442.5         0.0000264
    1443        0.00002688
  1443.5        0.00002712
    1444        0.00002736
  1444.5         0.0000276
    1445        0.00002808
  1445.5        0.00002832
    1446        0.00002856
  1446.5        0.00002904
    1447        0.00002928
  1447.5        0.00002952
    1448           0.00003
  1448.5        0.00003024
    1449        0.00003072
  1449.5        0.00003096
    1450        0.00003144
  1450.5        0.00003168
    1451        0.00003216
  1451.5         0.0000324
    1452        0.00003288
  1452.5        0.00003312
    1453         0.0000336
  1453.5        0.00003384
    1454        0.00003432
  1454.5        0.00003456
    1455        0.00003504
  1455.5        0.00003552
    1456        0.00003576
  1456.5        0.00003624
    1457        0.00003672
  1457.5        0.00003696
    1458        0.00003744
  1458.5        0.00003792
    1459        0.00003816
  1459.5        0.00003864
    1460        0.00003912
  1460.5         0.0000396
    1461        0.00004008
  1461.5        0.00004032
    1462         0.0000408
  1462.5        0.00004128
    1463        0.00004176
  1463.5        0.00004224
    1464        0.00004272
  1464.5         0.0000432
    1465        0.00004368
  1465.5        0.00004416
    1466        0.00004464
  1466.5        0.00004512
    1467         0.0000456
  1467.5        0.00004608
    1468        0.00004656
  1468.5        0.00004704
    1469        0.00004752
  1469.5        0.00004824
    1470        0.00004872
  1470.5         0.0000492
    1471        0.00004968
  1471.5        0.00005016
    1472        0.00005088
  1472.5        0.00005136
    1473        0.00005184
  1473.5        0.00005256
    1474        0.00005304
  1474.5        0.00005352
    1475        0.00005424
  1475.5        0.00005472
    1476        0.00005544
  1476.5        0.00005592
    1477        0.00005664
  1477.5        0.00005712
    1478        0.00005784
  1478.5        0.00005832
    1479        0.00005904
  1479.5        0.00005976
    1480        0.00006024
  1480.5        0.00006096
    1481        0.00006168
  1481.5         0.0000624
    1482        0.00006288
  1482.5         0.0000636
    1483        0.00006432
  1483.5        0.00006504
    1484        0.00006576
  1484.5        0.00006648
    1485         0.0000672
  1485.5        0.00006792
    1486        0.00006864
  1486.5        0.00006936
    1487        0.00007008
  1487.5         0.0000708
    1488        0.00007152
  1488.5        0.00007224
    1489        0.00007296
  1489.5        0.00007392
    1490        0.00007464
  1490.5        0.00007536
    1491        0.00007608
  1491.5        0.00007704
    1492        0.00007776
  1492.5        0.00007872
    1493        0.00007944
  1493.5        0.00008016
    1494        0.00008112
  1494.5        0.00008208
    1495         0.0000828
  1495.5        0.00008376
    1496        0.00008448
  1496.5        0.00008544
    1497         0.0000864
  1497.5        0.00008736
    1498        0.00008808
  1498.5        0.00008904
    1499           0.00009
  1499.5        0.00009096
    1500        0.00009192
  1500.5        0.00009288
    1501        0.00009384
  1501.5         0.0000948
    1502        0.00009576
  1502.5        0.00009672
    1503        0.00009792
  1503.5        0.00009888
    1504        0.00009984
  1504.5         0.0001008
    1505          0.000102
  1505.5        0.00010296
    1506        0.00010416
  1506.5        0.00010512
    1507        0.00010632
  1507.5        0.00010728
    1508        0.00010848
  1508.5        0.00010944
    1509        0.00011064
  1509.5        0.00011184
    1510        0.00011304
  1510.5        0.00011424
    1511         0.0001152
  1511.5         0.0001164
    1512         0.0001176
  1512.5         0.0001188
    1513           0.00012
  1513.5        0.00012144
    1514        0.00012264
  1514.5        0.00012384
    1515        0.00012504
  1515.5        0.00012648
    1516        0.00012768
  1516.5        0.00012888
    1517        0.00013032
  1517.5        0.00013152
    1518        0.00013296
  1518.5         0.0001344
    1519         0.0001356
  1519.5        0.00013704
    1520        0.00013848
  1520.5        0.00013992
    1521        0.00014136
  1521.5        0.00014256
    1522          0.000144
  1522.5        0.00014568
    1523        0.00014712
  1523.5        0.00014856
    1524           0.00015
  1524.5        0.00015144
    1525        0.00015312
  1525.5        0.00015456
    1526        0.00015624
  1526.5        0.00015768
    1527        0.00015936
  1527.5         0.0001608
    1528        0.00016248
  1528.5        0.00016416
    1529        0.00016584
  1529.5        0.00016752
    1530         0.0001692
  1530.5        0.00017088
    1531        0.00017256
  1531.5        0.00017424
    1532        0.00017592
  1532.5        0.00017784
    1533        0.00017952
  1533.5         0.0001812
    1534        0.00018312
  1534.5        0.00018504
    1535        0.00018672
  1535.5        0.00018864
    1536        0.00019056
  1536.5        0.00019248
    1537         0.0001944
  1537.5        0.00019632
    1538        0.00019824
  1538.5        0.00020016
    1539        0.00020208
  1539.5          0.000204
    1540        0.00020616
  1540.5        0.00020808
    1541        0.00021024
  1541.5        0.00021216
    1542        0.00021432
  1542.5        0.00021648
    1543        0.00021864
  1543.5         0.0002208
    1544        0.00022296
  1544.5        0.00022512
    1545        0.00022728
  1545.5        0.00022944
    1546        0.00023184
  1546.5          0.000234
    1547         0.0002364
  1547.5        0.00023856
    1548           0.00024
  1548.5         0.0002424
    1549         0.0002448
  1549.5         0.0002472
    1550         0.0002496
  1550.5          0.000252
    1551         0.0002544
  1551.5         0.0002568
    1552         0.0002592
  1552.5          0.000264
    1553         0.0002664
  1553.5         0.0002688
    1554         0.0002712
  1554.5         0.0002736
    1555          0.000276
  1555.5         0.0002784
    1556         0.0002808
  1556.5         0.0002832
    1557         0.0002856
  1557.5         0.0002904
    1558         0.0002928
  1558.5         0.0002952
    1559         0.0002976
  1559.5            0.0003
    1560         0.0003024
  1560.5         0.0003072
    1561         0.0003096
  1561.5          0.000312
    1562         0.0003144
  1562.5         0.0003192
    1563         0.0003216
  1563.5          0.000324
    1564         0.0003264
  1564.5         0.0003312
    1565         0.0003336
  1565.5          0.000336
    1566         0.0003408
  1566.5         0.0003432
    1567         0.0003456
  1567.5         0.0003504
    1568         0.0003528
  1568.5         0.0003576
    1569           0.00036
  1569.5         0.0003624
    1570         0.0003672
  1570.5         0.0003696
    1571         0.0003744
  1571.5         0.0003768
    1572         0.0003816
  1572.5          0.000384
    1573         0.0003888
  1573.5         0.0003912
    1574          0.000396
  1574.5         0.0003984
    1575         0.0004032
  1575.5         0.0004056
    1576         0.0004104
  1576.5         0.0004152
    1577         0.0004176
  1577.5         0.0004224
    1578         0.0004272
  1578.5         0.0004296
    1579         0.0004344
  1579.5         0.0004392
    1580         0.0004416
  1580.5         0.0004464
    1581         0.0004512
  1581.5          0.000456
    1582         0.0004584
  1582.5         0.0004632
    1583          0.000468
  1583.5         0.0004728
    1584         0.0004776
  1584.5           0.00048
    1585         0.0004848
  1585.5         0.0004896
    1586         0.0004944
  1586.5         0.0004992
    1587          0.000504
  1587.5         0.0005088
    1588         0.0005136
  1588.5         0.0005184
    1589         0.0005232
  1589.5          0.000528
    1590         0.0005328
  1590.5         0.0005376
    1591         0.0005424
  1591.5         0.0005472
    1592          0.000552
  1592.5         0.0005568
    1593         0.0005616
  1593.5         0.0005664
    1594         0.0005736
  1594.5         0.0005784
    1595         0.0005832
  1595.5          0.000588
    1596         0.0005928
  1596.5            0.0006
    1597         0.0006048
  1597.5         0.0006096
    1598         0.0006168
  1598.5         0.0006216
    1599         0.0006264
  1599.5         0.0006336
    1600         0.0006384
  1600.5         0.0006432
    1601         0.0006504
  1601.5         0.0006552
    1602         0.0006624
  1602.5         0.0006672
    1603         0.0006744
  1603.5         0.0006792
    1604         0.0006864
  1604.5         0.0006912
    1605         0.0006984
  1605.5         0.0007056
    1606         0.0007104
  1606.5         0.0007176
    1607         0.0007248
  1607.5         0.0007296
    1608         0.0007368
  1608.5          0.000744
    1609         0.0007512
  1609.5          0.000756
    1610         0.0007632
  1610.5         0.0007704
    1611         0.0007776
  1611.5         0.0007848
    1612          0.000792
  1612.5         0.0007992
    1613         0.0008064
  1613.5         0.0008136
    1614         0.0008208
  1614.5          0.000828
    1615         0.0008352
  1615.5         0.0008424
    1616         0.0008496
  1616.5         0.0008568
    1617          0.000864
  1617.5         0.0008736
    1618         0.0008808
  1618.5          0.000888
    1619         0.0008952
  1619.5         0.0009048
    1620          0.000912
  1620.5         0.0009192
    1621         0.0009288
  1621.5          0.000936
    1622         0.0009456
  1622.5         0.0009528
    1623         0.0009624
  1623.5         0.0009696
    1624         0.0009792
  1624.5         0.0009864
    1625          0.000996
  1625.5         0.0010056
    1626         0.0010128
  1626.5         0.0010224
    1627          0.001032
  1627.5         0.0010392
    1628         0.0010488
  1628.5         0.0010584
    1629          0.001068
  1629.5         0.0010776
    1630         0.0010872
  1630.5         0.0010968
    1631         0.0011064
  1631.5          0.001116
    1632         0.0011256
  1632.5         0.0011352
    1633         0.0011448
  1633.5         0.0011544
    1634          0.001164
  1634.5         0.0011736
    1635         0.0011856
  1635.5         0.0011952
    1636         0.0012048
  1636.5         0.0012168
    1637         0.0012264
  1637.5          0.001236
    1638          0.001248
  1638.5         0.0012576
    1639         0.0012696
  1639.5         0.0012792
    1640         0.0012912
  1640.5         0.0013032
    1641         0.0013128
  1641.5         0.0013248
    1642         0.0013368
  1642.5         0.0013488
    1643         0.0013584
  1643.5         0.0013704
    1644         0.0013824
  1644.5         0.0013944
    1645         0.0014064
  1645.5         0.0014184
    1646         0.0014304
  1646.5         0.0014424
    1647         0.0014544
  1647.5         0.0014688
    1648         0.0014808
  1648.5         0.0014928
    1649         0.0015048
  1649.5         0.0015192
    1650         0.0015312
  1650.5         0.0015432
    1651         0.0015576
  1651.5         0.0015696
    1652          0.001584
  1652.5         0.0015984
    1653         0.0016104
  1653.5         0.0016248
    1654         0.0016392
  1654.5         0.0016512
    1655         0.0016656
  1655.5           0.00168
    1656         0.0016944
  1656.5         0.0017088
    1657         0.0017232
  1657.5         0.0017376
    1658          0.001752
  1658.5         0.0017664
    1659         0.0017808
  1659.5         0.0017976
    1660          0.001812
  1660.5         0.0018264
    1661         0.0018432
  1661.5         0.0018576
    1662         0.0018744
  1662.5         0.0018888
    1663         0.0019056
  1663.5           0.00192
    1664         0.0019368
  1664.5         0.0019536
    1665         0.0019704
  1665.5         0.0019848
    1666         0.0020016
  1666.5         0.0020184
    1667         0.0020352
  1667.5          0.002052
    1668         0.0020688
  1668.5          0.002088
    1669         0.0021048
  1669.5         0.0021216
    1670         0.0021384
  1670.5         0.0021576
    1671         0.0021744
  1671.5         0.0021936
    1672         0.0022104
  1672.5         0.0022296
    1673         0.0022488
  1673.5         0.0022656
    1674         0.0022848
  1674.5          0.002304
    1675         0.0023232
  1675.5         0.0023424
    1676         0.0023616
  1676.5         0.0023808
    1677            0.0024
  1677.5          0.002424
    1678          0.002448
  1678.5          0.002448
    1679          0.002472
  1679.5          0.002496
    1680           0.00252
  1680.5          0.002544
    1681          0.002568
  1681.5          0.002592
    1682          0.002592
  1682.5          0.002616
    1683           0.00264
  1683.5          0.002664
    1684          0.002688
  1684.5          0.002712
    1685          0.002736
  1685.5           0.00276
    1686          0.002784
  1686.5          0.002808
    1687          0.002832
  1687.5          0.002856
    1688           0.00288
  1688.5          0.002904
    1689          0.002928
  1689.5          0.002928
    1690          0.002952
  1690.5          0.002976
    1691             0.003
  1691.5          0.003024
    1692          0.003072
  1692.5          0.003096
    1693           0.00312
  1693.5          0.003144
    1694          0.003168
  1694.5          0.003192
    1695          0.003216
  1695.5           0.00324
    1696          0.003264
  1696.5          0.003288
    1697          0.003312
  1697.5          0.003336
    1698           0.00336
  1698.5          0.003384
    1699          0.003432
  1699.5          0.003456
    1700           0.00348
  1700.5          0.003504
    1701          0.003528
  1701.5          0.003552
    1702            0.0036
  1702.5          0.003624
    1703          0.003648
  1703.5          0.003672
    1704          0.003696
  1704.5          0.003744
    1705          0.003768
  1705.5          0.003792
    1706          0.003816
  1706.5          0.003864
    1707          0.003888
  1707.5          0.003912
    1708          0.003936
  1708.5          0.003984
    1709          0.004008
  1709.5          0.004032
    1710           0.00408
  1710.5          0.004104
    1711          0.004128
  1711.5          0.004176
    1712            0.0042
  1712.5          0.004224
    1713          0.004272
  1713.5          0.004296
    1714          0.004344
  1714.5          0.004368
    1715          0.004392
  1715.5           0.00444
    1716          0.004464
  1716.5          0.004512
    1717          0.004536
  1717.5          0.004584
    1718          0.004608
  1718.5          0.004656
    1719           0.00468
  1719.5          0.004728
    1720          0.004752
  1720.5            0.0048
    1721          0.004824
  1721.5          0.004872
    1722           0.00492
  1722.5          0.004944
    1723          0.004992
  1723.5          0.005016
    1724          0.005064
  1724.5          0.005112
    1725          0.005136
  1725.5          0.005184
    1726          0.005232
  1726.5          0.005256
    1727          0.005304
  1727.5          0.005352
    1728          0.005376
  1728.5          0.005424
    1729          0.005472
  1729.5           0.00552
    1730          0.005544
  1730.5          0.005592
    1731           0.00564
  1731.5          0.005688
    1732          0.005712
  1732.5           0.00576
    1733          0.005808
  1733.5          0.005856
    1734          0.005904
  1734.5          0.005952
    1735             0.006
  1735.5          0.006024
    1736          0.006072
  1736.5           0.00612
    1737          0.006168
  1737.5          0.006216
    1738          0.006264
  1738.5          0.006312
    1739           0.00636
  1739.5          0.006408
    1740          0.006456
  1740.5          0.006504
    1741          0.006552
  1741.5            0.0066
    1742          0.006648
  1742.5           0.00672
    1743          0.006768
  1743.5          0.006816
    1744          0.006864
  1744.5          0.006912
    1745           0.00696
  1745.5          0.007008
    1746           0.00708
  1746.5          0.007128
    1747          0.007176
  1747.5          0.007224
    1748          0.007296
  1748.5          0.007344
    1749          0.007392
  1749.5          0.007464
    1750          0.007512
  1750.5           0.00756
    1751          0.007632
  1751.5           0.00768
    1752          0.007728
  1752.5            0.0078
    1753          0.007848
  1753.5           0.00792
    1754          0.007968
  1754.5           0.00804
    1755          0.008088
  1755.5           0.00816
    1756          0.008208
  1756.5           0.00828
    1757          0.008328
  1757.5            0.0084
    1758          0.008448
  1758.5           0.00852
    1759          0.008592
  1759.5           0.00864
    1760          0.008712
  1760.5          0.008784
    1761          0.008832
  1761.5          0.008904
    1762          0.008976
  1762.5          0.009024
    1763          0.009096
  1763.5          0.009168
    1764           0.00924
  1764.5          0.009312
    1765          0.009384
  1765.5          0.009432
    1766          0.009504
  1766.5          0.009576
    1767          0.009648
  1767.5           0.00972
    1768          0.009792
  1768.5          0.009864
    1769          0.009936
  1769.5          0.010008
    1770           0.01008
  1770.5          0.010152
    1771          0.010224
  1771.5          0.010296
    1772          0.010392
  1772.5          0.010464
    1773          0.010536
  1773.5          0.010608
    1774           0.01068
  1774.5          0.010776
    1775          0.010848
  1775.5           0.01092
    1776          0.010992
  1776.5          0.011088
    1777           0.01116
  1777.5          0.011232
    1778          0.011328
  1778.5            0.0114
    1779          0.011496
  1779.5          0.011568
    1780          0.011664
  1780.5          0.011736
    1781          0.011832
  1781.5          0.011904
    1782             0.012
  1782.5          0.012072
    1783          0.012168
  1783.5          0.012264
    1784          0.012336
  1784.5          0.012432
    1785          0.012528
  1785.5            0.0126
    1786          0.012696
  1786.5          0.012792
    1787          0.012888
  1787.5          0.012984
    1788           0.01308
  1788.5          0.013152
    1789          0.013248
  1789.5          0.013344
    1790           0.01344
  1790.5          0.013536
    1791          0.013632
  1791.5          0.013728
    1792          0.013824
  1792.5           0.01392
    1793           0.01404
  1793.5          0.014136
    1794          0.014232
  1794.5          0.014328
    1795          0.014424
  1795.5          0.014544
    1796           0.01464
  1796.5          0.014736
    1797          0.014856
  1797.5          0.014952
    1798          0.015048
  1798.5          0.015168
    1799          0.015264
  1799.5          0.015384
   1800.           0.01548
  1800.5          0.015857
   1801.          0.016223
  1801.5          0.016577
   1802.          0.016919
  1802.5          0.017251
   1803.          0.017572
  1803.5          0.017883
   1804.          0.018183
  1804.5          0.018472
   1805.          0.018752
  1805.5          0.019022
   1806.          0.019282
  1806.5          0.019533
   1807.          0.019775
  1807.5          0.020008
   1808.          0.020232
  1808.5          0.020447
   1809.          0.020654
  1809.5          0.020853
   1810.          0.021044
  1810.5          0.021228
   1811.          0.021404
  1811.5          0.021572
   1812.          0.021734
  1812.5          0.021889
   1813.          0.022037
  1813.5          0.022179
   1814.          0.022315
  1814.5          0.022445
   1815.          0.022569
  1815.5          0.022688
   1816.          0.022802
  1816.5           0.02291
   1817.          0.023014
  1817.5          0.023114
   1818.          0.023209
  1818.5          0.023301
   1819.          0.023388
  1819.5          0.023473
   1820.          0.023553
  1820.5          0.023631
   1821.          0.023707
  1821.5          0.023779
   1822.           0.02385
  1822.5          0.023918
   1823.          0.023985
  1823.5           0.02405
   1824.          0.024114
  1824.5          0.024177
   1825.           0.02424
  1825.5          0.024302
   1826.          0.024364
  1826.5          0.024426
   1827.          0.024489
  1827.5          0.024552
   1828.          0.024616
  1828.5          0.024682
   1829.          0.024749
  1829.5          0.024818
   1830.          0.024889
  1830.5          0.024962
   1831.          0.025038
  1831.5          0.025117
   1832.          0.025199
  1832.5          0.025285
   1833.          0.025375
  1833.5          0.025469
   1834.          0.025567
  1834.5           0.02567
   1835.          0.025778
  1835.5          0.025892
   1836.          0.026011
  1836.5          0.026136
   1837.          0.026268
  1837.5          0.026406
   1838.          0.026551
  1838.5          0.026704
   1839.          0.026864
  1839.5          0.027032
   1840.          0.027208
  1840.5          0.027393
   1841.          0.027587
  1841.5           0.02779
   1842.          0.028003
  1842.5          0.028225
   1843.          0.028458
  1843.5          0.028702
   1844.          0.028957
  1844.5          0.029222
   1845.      	    0.0295
  1845.5           0.02979
   1846.          0.030092
  1846.5          0.030407
   1847.          0.030735
  1847.5          0.031076
   1848.          0.031432
  1848.5          0.031802
   1849.          0.032186
  1849.5          0.032585
   1850.      	     0.033
  1850.5          0.033424
   1851.          0.033851
  1851.5          0.034282
   1852.          0.034715
  1852.5          0.035151
   1853.          0.035591
  1853.5          0.036034
   1854.          0.036481
  1854.5           0.03693
   1855.          0.037383
  1855.5          0.037839
   1856.          0.038299
  1856.5          0.038763
   1857.          0.039229
  1857.5      	    0.0397
   1858.          0.040174
  1858.5          0.040652
   1859.          0.041133
  1859.5          0.041618
   1860.          0.042107
  1860.5      	    0.0426
   1861.          0.043097
  1861.5          0.043597
   1862.          0.044102
  1862.5          0.044611
   1863.          0.045123
  1863.5           0.04564
   1864.          0.046162
  1864.5          0.046687
   1865.          0.047217
  1865.5          0.047751
   1866.           0.04829
  1866.5          0.048833
   1867.           0.04938
  1867.5          0.049933
   1868.           0.05049
  1868.5          0.051052
   1869.          0.051618
  1869.5           0.05219
   1870.          0.052766
  1870.5          0.053347
   1871.          0.053934
  1871.5          0.054526
   1872.          0.055123
  1872.5          0.055725
   1873.          0.056332
  1873.5          0.056946
   1874.          0.057564
  1874.5          0.058188
   1875.          0.058818
  1875.5          0.059454
   1876.          0.060096
  1876.5          0.060743
   1877.          0.061397
  1877.5          0.062057
   1878.          0.062723
  1878.5          0.063395
   1879.          0.064074
  1879.5          0.064759
   1880.          0.065451
  1880.5          0.066149
   1881.          0.066854
  1881.5          0.067567
   1882.          0.068286
  1882.5          0.069012
   1883.          0.069746
  1883.5          0.070487
   1884.          0.071236
  1884.5          0.071992
   1885.          0.072756
  1885.5          0.073528
   1886.          0.074307
  1886.5          0.075095
   1887.          0.075891
  1887.5          0.076696
   1888.          0.077509
  1888.5           0.07833
   1889.          0.079161
  1889.5      	      0.08
   1890.          0.080849
  1890.5          0.081706
   1891.          0.082574
  1891.5           0.08345
   1892.          0.084337
  1892.5          0.085233
   1893.           0.08614
  1893.5          0.087057
   1894.          0.087984
  1894.5          0.088922
   1895.          0.089871
  1895.5          0.090831
   1896.          0.091802
  1896.5          0.092784
   1897.          0.093778
  1897.5          0.094784
   1898.          0.095802
  1898.5          0.096833
   1899.          0.097876
  1899.5          0.098931
   1900.      	       0.1
  1900.5           0.10108
   1901.           0.10216
  1901.5           0.10325
   1902.           0.10435
  1902.5           0.10545
   1903.           0.10655
  1903.5           0.10766
   1904.           0.10878
  1904.5      	    0.1099
   1905.           0.11103
  1905.5           0.11217
   1906.           0.11331
  1906.5           0.11445
   1907.           0.11561
  1907.5           0.11676
   1908.           0.11793
  1908.5      	    0.1191
   1909.           0.12028
  1909.5           0.12146
   1910.           0.12265
  1910.5           0.12384
   1911.           0.12505
  1911.5           0.12625
   1912.           0.12747
  1912.5           0.12869
   1913.           0.12992
  1913.5           0.13115
   1914.           0.13239
  1914.5           0.13364
   1915.           0.13489
  1915.5           0.13615
   1916.           0.13742
  1916.5      	    0.1387
   1917.           0.13998
  1917.5           0.14127
   1918.           0.14256
  1918.5           0.14387
   1919.           0.14518
  1919.5           0.14649
   1920.           0.14782
  1920.5           0.14915
   1921.           0.15049
  1921.5           0.15183
   1922.           0.15319
  1922.5           0.15455
   1923.           0.15592
  1923.5           0.15729
   1924.           0.15868
  1924.5           0.16007
   1925.           0.16147
  1925.5           0.16288
   1926.      	    0.1643
  1926.5           0.16572
   1927.           0.16715
  1927.5           0.16859
   1928.           0.17004
  1928.5      	    0.1715
   1929.           0.17296
  1929.5           0.17444
   1930.           0.17592
  1930.5           0.17741
   1931.           0.17891
  1931.5           0.18042
   1932.           0.18193
  1932.5           0.18346
   1933.           0.18499
  1933.5           0.18654
   1934.           0.18809
  1934.5           0.18965
   1935.           0.19122
  1935.5           0.19281
   1936.      	    0.1944
  1936.5           0.19599
   1937.      	    0.1976
  1937.5           0.19922
   1938.           0.20085
  1938.5           0.20249
   1939.           0.20414
  1939.5      	    0.2058
   1940.           0.20746
  1940.5           0.20914
   1941.           0.21083
  1941.5           0.21253
   1942.           0.21424
  1942.5           0.21596
   1943.           0.21769
  1943.5           0.21943
   1944.           0.22118
  1944.5           0.22295
   1945.           0.22472
  1945.5           0.22651
   1946.      	    0.2283
  1946.5           0.23011
   1947.           0.23193
  1947.5           0.23376
   1948.      	    0.2356
  1948.5           0.23745
   1949.           0.23932
  1949.5      	    0.2412
   1950.           0.24309
  1950.5           0.24499
   1951.      	    0.2469
  1951.5           0.24883
   1952.           0.25077
  1952.5           0.25272
   1953.           0.25468
  1953.5           0.25666
   1954.           0.25865
  1954.5           0.26065
   1955.           0.26267
  1955.5      	    0.2647
   1956.           0.26674
  1956.5      	    0.2688
   1957.           0.27087
  1957.5           0.27296
   1958.           0.27505
  1958.5           0.27717
   1959.           0.27929
  1959.5           0.28143
   1960.           0.28359
  1960.5           0.28576
   1961.           0.28795
  1961.5           0.29015
   1962.           0.29236
  1962.5           0.29459
   1963.           0.29684
  1963.5      	    0.2991
   1964.           0.30138
  1964.5           0.30367
   1965.           0.30598
  1965.5           0.30831
   1966.           0.31065
  1966.5           0.31301
   1967.           0.31538
  1967.5           0.31778
   1968.           0.32019
  1968.5           0.32261
   1969.           0.32506
  1969.5           0.32752
   1970.      	      0.33
  1970.5           0.33249
   1971.           0.33499
  1971.5           0.33749
   1972.      	      0.34
  1972.5           0.34252
   1973.           0.34504
  1973.5           0.34757
   1974.      	    0.3501
  1974.5           0.35264
   1975.           0.35519
  1975.5           0.35774
   1976.      	    0.3603
  1976.5           0.36286
   1977.           0.36544
  1977.5           0.36801
   1978.      	    0.3706
  1978.5           0.37319
   1979.           0.37579
  1979.5           0.37839
   1980.      	     0.381
  1980.5           0.38362
   1981.           0.38625
  1981.5           0.38888
   1982.           0.39152
  1982.5           0.39416
   1983.           0.39682
  1983.5           0.39948
   1984.           0.40214
  1984.5           0.40482
   1985.      	    0.4075
  1985.5           0.41019
   1986.           0.41288
  1986.5           0.41559
   1987.      	    0.4183
  1987.5           0.42102
   1988.           0.42374
  1988.5           0.42647
   1989.           0.42922
  1989.5           0.43196
   1990.           0.43472
  1990.5           0.43749
   1991.           0.44026
  1991.5           0.44304
   1992.           0.44583
  1992.5           0.44862
   1993.           0.45143
  1993.5           0.45424
   1994.           0.45706
  1994.5           0.45989
   1995.           0.46273
  1995.5           0.46558
   1996.           0.46843
  1996.5      	    0.4713
   1997.           0.47417
  1997.5           0.47705
   1998.           0.47994
  1998.5           0.48284
   1999.           0.48575
  1999.5           0.48867
   2000.           0.49159
  2000.5           0.49453
   2001.           0.49747
  2001.5           0.50043
   2002.           0.50339
  2002.5           0.50636
   2003.           0.50935
  2003.5           0.51234
   2004.           0.51534
  2004.5           0.51836
   2005.           0.52138
  2005.5           0.52441
   2006.           0.52745
  2006.5      	    0.5305
   2007.           0.53357
  2007.5           0.53664
   2008.           0.53972
  2008.5           0.54282
   2009.           0.54592
  2009.5           0.54904
   2010.           0.55217
  2010.5      	    0.5553
   2011.           0.55845
  2011.5           0.56161
   2012.           0.56478
  2012.5           0.56796
   2013.           0.57116
  2013.5           0.57436
   2014.           0.57758
  2014.5           0.58081
   2015.           0.58405
  2015.5      	    0.5873
   2016.           0.59056
  2016.5           0.59384
   2017.           0.59713
  2017.5           0.60043
   2018.           0.60374
  2018.5           0.60706
   2019.      	    0.6104
  2019.5           0.61375
   2020.           0.61712
  2020.5           0.62049
   2021.           0.62389
  2021.5           0.62729
   2022.           0.63071
  2022.5           0.63414
   2023.           0.63758
  2023.5           0.64104
   2024.           0.64451
  2024.5      	     0.648
   2025.      	    0.6515
  2025.5           0.65501
   2026.           0.65854
  2026.5           0.66208
   2027.           0.66564
  2027.5           0.66921
   2028.      	    0.6728
  2028.5           0.67641
   2029.           0.68002
  2029.5           0.68366
   2030.           0.68731
  2030.5           0.69097
   2031.           0.69465
  2031.5           0.69835
   2032.           0.70207
  2032.5      	    0.7058
   2033.           0.70954
  2033.5           0.71331
   2034.           0.71709
  2034.5           0.72088
   2035.      	    0.7247
  2035.5           0.72853
   2036.           0.73238
  2036.5           0.73625
   2037.           0.74013
  2037.5           0.74403
   2038.           0.74796
  2038.5      	    0.7519
   2039.           0.75586
  2039.5           0.75983
   2040.           0.76383
  2040.5           0.76785
   2041.           0.77188
  2041.5           0.77594
   2042.           0.78001
  2042.5           0.78411
   2043.           0.78822
  2043.5           0.79236
   2044.           0.79652
  2044.5      	    0.8007
   2045.      	    0.8049
  2045.5           0.80912
   2046.           0.81336
  2046.5           0.81762
   2047.           0.82191
  2047.5           0.82622
   2048.           0.83055
  2048.5           0.83491
   2049.           0.83928
  2049.5           0.84368
   2050.           0.84811
  2050.5           0.85256
   2051.           0.85703
  2051.5           0.86153
   2052.           0.86605
  2052.5      	    0.8706
   2053.           0.87517
  2053.5           0.87977
   2054.      	    0.8844
  2054.5           0.88905
   2055.           0.89373
  2055.5           0.89843
   2056.           0.90316
  2056.5           0.90792
   2057.           0.91271
  2057.5           0.91752
   2058.           0.92237
  2058.5           0.92724
   2059.           0.93214
  2059.5           0.93707
   2060.           0.94203
  2060.5           0.94702
   2061.           0.95205
  2061.5      	    0.9571
   2062.           0.96218
  2062.5      	    0.9673
   2063.           0.97245
  2063.5           0.97763
   2064.           0.98284
  2064.5           0.98809
   2065.           0.99337
  2065.5           0.99869
   2066.      	     1.004
  2066.5      	    1.0094
   2067.      	    1.0148
  2067.5      	    1.0203
   2068.      	    1.0258
  2068.5      	    1.0313
   2069.      	    1.0369
  2069.5      	    1.0425
   2070.      	    1.0481
  2070.5      	    1.0538
   2071.      	    1.0596
  2071.5      	    1.0653
   2072.      	    1.0711
  2072.5      	     1.077
   2073.      	    1.0829
  2073.5      	    1.0888
   2074.      	    1.0948
  2074.5      	    1.1008
   2075.      	    1.1068
  2075.5      	    1.1129
   2076.      	    1.1191
  2076.5      	    1.1253
   2077.      	    1.1315
  2077.5      	    1.1378
   2078.      	    1.1442
  2078.5      	    1.1505
   2079.      	     1.157
  2079.5      	    1.1635
   2080.      	      1.17
  2080.5      	    1.1766
   2081.      	    1.1833
  2081.5      	    1.1901
   2082.      	     1.197
  2082.5      	     1.204
   2083.      	     1.211
  2083.5      	     1.218
   2084.      	    1.2252
  2084.5      	    1.2323
   2085.      	    1.2395
  2085.5      	    1.2468
   2086.      	     1.254
  2086.5      	    1.2614
   2087.      	    1.2687
  2087.5      	    1.2761
   2088.      	    1.2834
  2088.5      	    1.2909
   2089.      	    1.2983
  2089.5      	    1.3057
   2090.      	    1.3132
  2090.5      	    1.3207
   2091.      	    1.3282
  2091.5      	    1.3357
   2092.      	    1.3433
  2092.5      	    1.3508
   2093.      	    1.3584
  2093.5      	    1.3659
   2094.      	    1.3735
  2094.5      	    1.3811
   2095.      	    1.3887
  2095.5      	    1.3963
   2096.      	    1.4039
  2096.5      	    1.4116
   2097.      	    1.4192
  2097.5      	    1.4268
   2098.      	    1.4345
  2098.5      	    1.4421
   2099.      	    1.4498
  2099.5      	    1.4575
   2100.      	    1.4651
  2100.5      	    1.4728
   2101.      	    1.4805
  2101.5      	    1.4882
   2102.      	    1.4959
  2102.5      	    1.5036
   2103.      	    1.5113
  2103.5      	     1.519
   2104.      	    1.5267
  2104.5      	    1.5344
   2105.      	    1.5421
  2105.5      	    1.5498
   2106.      	    1.5576
  2106.5      	    1.5653
   2107.      	     1.573
  2107.5      	    1.5808
   2108.      	    1.5885
  2108.5      	    1.5962
   2109.      	     1.604
  2109.5      	    1.6117
   2110.      	    1.6195
  2110.5      	    1.6272
   2111.      	     1.635
  2111.5      	    1.6427
   2112.      	    1.6505
  2112.5      	    1.6582
   2113.      	     1.666
  2113.5      	    1.6737
   2114.      	    1.6815
  2114.5      	    1.6893
   2115.      	     1.697
  2115.5      	    1.7048
   2116.      	    1.7126
  2116.5      	    1.7203
   2117.      	    1.7281
  2117.5      	    1.7359
   2118.      	    1.7437
  2118.5      	    1.7514
   2119.      	    1.7592
  2119.5      	     1.767
   2120.      	    1.7748
  2120.5      	    1.7826
   2121.      	    1.7903
  2121.5      	    1.7981
   2122.      	    1.8059
  2122.5      	    1.8137
   2123.      	    1.8215
  2123.5      	    1.8292
   2124.      	     1.837
  2124.5      	    1.8448
   2125.      	    1.8526
  2125.5      	    1.8604
   2126.      	    1.8682
  2126.5      	     1.876
   2127.      	    1.8838
  2127.5      	    1.8915
   2128.      	    1.8993
  2128.5      	    1.9071
   2129.      	    1.9149
  2129.5      	    1.9227
   2130.      	    1.9305
  2130.5      	    1.9383
   2131.      	    1.9461
  2131.5      	    1.9539
   2132.      	    1.9617
  2132.5      	    1.9695
   2133.      	    1.9773
  2133.5      	    1.9851
   2134.      	    1.9929
  2134.5      	    2.0007
   2135.      	    2.0085
  2135.5      	    2.0163
   2136.      	    2.0241
  2136.5      	     2.032
   2137.      	    2.0398
  2137.5      	    2.0476
   2138.      	    2.0554
  2138.5      	    2.0633
   2139.      	    2.0711
  2139.5      	    2.0789
   2140.      	    2.0868
  2140.5      	    2.0946
   2141.      	    2.1025
  2141.5      	    2.1104
   2142.      	    2.1183
  2142.5      	    2.1262
   2143.      	    2.1341
  2143.5      	     2.142
   2144.      	    2.1499
  2144.5      	    2.1579
   2145.      	    2.1659
  2145.5      	    2.1739
   2146.      	     2.182
  2146.5      	    2.1901
   2147.      	    2.1983
  2147.5      	    2.2066
   2148.      	     2.215
  2148.5      	    2.2236
   2149.      	    2.2324
  2149.5      	    2.2416
   2150.      	    2.2516
  2150.5      	    2.2621
   2151.      	    2.2728
  2151.5      	    2.2835
   2152.      	    2.2944
  2152.5      	    2.3054
   2153.      	    2.3165
  2153.5      	    2.3277
   2154.      	    2.3391
  2154.5      	    2.3505
   2155.      	     2.362
  2155.5      	    2.3737
   2156.      	    2.3854
  2156.5      	    2.3973
   2157.      	    2.4092
  2157.5      	    2.4213
   2158.      	    2.4335
  2158.5      	    2.4457
   2159.      	    2.4581
  2159.5      	    2.4705
   2160.      	    2.4831
  2160.5      	    2.4957
   2161.      	    2.5084
  2161.5      	    2.5212
   2162.      	    2.5342
  2162.5      	    2.5472
   2163.      	    2.5602
  2163.5      	    2.5734
   2164.      	    2.5867
  2164.5      	       2.6
   2165.      	    2.6135
  2165.5      	     2.627
   2166.      	    2.6406
  2166.5      	    2.6543
   2167.      	     2.668
  2167.5      	    2.6819
   2168.      	    2.6958
  2168.5      	    2.7098
   2169.      	    2.7239
  2169.5      	     2.738
   2170.      	    2.7522
  2170.5      	    2.7665
   2171.      	    2.7809
  2171.5      	    2.7954
   2172.      	    2.8099
  2172.5      	    2.8245
   2173.      	    2.8392
  2173.5      	    2.8539
   2174.      	    2.8687
  2174.5      	    2.8836
   2175.      	    2.8985
  2175.5      	    2.9135
   2176.      	    2.9286
  2176.5      	    2.9438
   2177.      	     2.959
  2177.5      	    2.9742
   2178.      	    2.9896
  2178.5      	     3.005
   2179.      	    3.0204
  2179.5      	     3.036
   2180.      	    3.0515
  2180.5      	    3.0672
   2181.      	    3.0829
  2181.5      	    3.0987
   2182.      	    3.1145
  2182.5      	    3.1304
   2183.      	    3.1463
  2183.5      	    3.1623
   2184.      	    3.1783
  2184.5      	    3.1945
   2185.      	    3.2106
  2185.5      	    3.2268
   2186.      	    3.2431
  2186.5      	    3.2594
   2187.      	    3.2758
  2187.5      	    3.2923
   2188.      	    3.3088
  2188.5      	    3.3253
   2189.      	    3.3419
  2189.5      	    3.3585
   2190.      	    3.3752
  2190.5      	     3.392
   2191.      	    3.4087
  2191.5      	    3.4256
   2192.      	    3.4425
  2192.5      	    3.4594
   2193.      	    3.4764
  2193.5      	    3.4934
   2194.      	    3.5105
  2194.5      	    3.5276
   2195.      	    3.5448
  2195.5      	     3.562
   2196.      	    3.5793
  2196.5      	    3.5966
   2197.      	    3.6139
  2197.5      	    3.6313
   2198.      	    3.6488
  2198.5      	    3.6662
   2199.      	    3.6838
  2199.5      	    3.7013
   2200.      	    3.7189
  2200.5      	    3.7366
   2201.      	    3.7543
  2201.5      	     3.772
   2202.      	    3.7898
  2202.5      	    3.8076
   2203.      	    3.8254
  2203.5      	    3.8433
   2204.      	    3.8612
  2204.5      	    3.8792
   2205.      	    3.8972
  2205.5      	    3.9153
   2206.      	    3.9333
  2206.5      	    3.9515
   2207.      	    3.9696
  2207.5      	    3.9878
   2208.      	     4.006
  2208.5      	    4.0243
   2209.      	    4.0426
  2209.5      	    4.0609
   2210.      	    4.0793
  2210.5      	    4.0977
   2211.      	    4.1162
  2211.5      	    4.1346
   2212.      	    4.1531
  2212.5      	    4.1717
   2213.      	    4.1903
  2213.5      	    4.2089
   2214.      	    4.2275
  2214.5      	    4.2462
   2215.      	    4.2649
  2215.5      	    4.2836
   2216.      	    4.3024
  2216.5      	    4.3212
   2217.      	      4.34
  2217.5      	    4.3589
   2218.      	    4.3778
  2218.5      	    4.3967
   2219.      	    4.4157
  2219.5      	    4.4347
   2220.      	    4.4537
  2220.5      	    4.4727
   2221.      	    4.4918
  2221.5      	    4.5109
   2222.      	    4.5301
  2222.5      	    4.5492
   2223.      	    4.5684
  2223.5      	    4.5876
   2224.      	    4.6069
  2224.5      	    4.6262
   2225.      	    4.6455
  2225.5      	    4.6648
   2226.      	    4.6841
  2226.5      	    4.7035
   2227.      	    4.7229
  2227.5      	    4.7424
   2228.      	    4.7618
  2228.5      	    4.7813
   2229.      	    4.8009
  2229.5      	    4.8204
   2230.      	      4.84
  2230.5      	    4.8596
   2231.      	    4.8792
  2231.5      	    4.8988
   2232.      	    4.9185
  2232.5      	    4.9382
   2233.      	    4.9579
  2233.5      	    4.9776
   2234.      	    4.9974
  2234.5      	    5.0172
   2235.      	     5.037
  2235.5      	    5.0568
   2236.      	    5.0767
  2236.5      	    5.0966
   2237.      	    5.1165
  2237.5      	    5.1364
   2238.      	    5.1564
  2238.5      	    5.1764
   2239.      	    5.1963
  2239.5      	    5.2164
   2240.      	    5.2364
  2240.5      	    5.2565
   2241.      	    5.2766
  2241.5      	    5.2967
   2242.      	    5.3168
  2242.5      	    5.3369
   2243.      	    5.3571
  2243.5      	    5.3773
   2244.      	    5.3975
  2244.5      	    5.4177
   2245.      	     5.438
  2245.5      	    5.4583
   2246.      	    5.4786
  2246.5      	    5.4989
   2247.      	    5.5192
  2247.5      	    5.5396
   2248.      	    5.5599
  2248.5      	    5.5803
   2249.      	    5.6007
  2249.5      	    5.6212
   2250.      	    5.6416
  2250.5      	    5.6621
   2251.      	    5.6826
  2251.5      	    5.7031
   2252.      	    5.7236
  2252.5      	    5.7442
   2253.      	    5.7647
  2253.5      	    5.7853
   2254.      	    5.8059
  2254.5      	    5.8265
   2255.      	    5.8472
  2255.5      	    5.8678
   2256.      	    5.8885
  2256.5      	    5.9092
   2257.      	    5.9299
  2257.5      	    5.9506
   2258.      	    5.9713
  2258.5      	    5.9921
   2259.      	    6.0129
  2259.5      	    6.0337
   2260.      	    6.0545
  2260.5      	    6.0753
   2261.      	    6.0961
  2261.5      	     6.117
   2262.      	    6.1379
  2262.5      	    6.1587
   2263.      	    6.1797
  2263.5      	    6.2006
   2264.      	    6.2215
  2264.5      	    6.2425
   2265.      	    6.2634
  2265.5      	    6.2844
   2266.      	    6.3054
  2266.5      	    6.3264
   2267.      	    6.3475
  2267.5      	    6.3685
   2268.      	    6.3896
  2268.5      	    6.4106
   2269.      	    6.4317
  2269.5      	    6.4528
   2270.      	     6.474
  2270.5      	    6.4951
   2271.      	    6.5162
  2271.5      	    6.5374
   2272.      	    6.5586
  2272.5      	    6.5798
   2273.      	     6.601
  2273.5      	    6.6222
   2274.      	    6.6434
  2274.5      	    6.6647
   2275.      	     6.686
  2275.5      	    6.7072
   2276.      	    6.7285
  2276.5      	    6.7498
   2277.      	    6.7711
  2277.5      	    6.7925
   2278.      	    6.8138
  2278.5      	    6.8352
   2279.      	    6.8565
  2279.5      	    6.8779
   2280.      	    6.8993
  2280.5      	    6.9207
   2281.      	    6.9421
  2281.5      	    6.9636
   2282.      	     6.985
  2282.5      	    7.0065
   2283.      	     7.028
  2283.5      	    7.0494
   2284.      	    7.0709
  2284.5      	    7.0924
   2285.      	     7.114
  2285.5      	    7.1355
   2286.      	     7.157
  2286.5      	    7.1786
   2287.      	    7.2002
  2287.5      	    7.2218
   2288.      	    7.2434
  2288.5      	     7.265
   2289.      	    7.2866
  2289.5      	    7.3082
   2290.      	    7.3298
  2290.5      	    7.3515
   2291.      	    7.3732
  2291.5      	    7.3948
   2292.      	    7.4165
  2292.5      	    7.4382
   2293.      	    7.4599
  2293.5      	    7.4816
   2294.      	    7.5034
  2294.5      	    7.5251
   2295.      	    7.5469
  2295.5      	    7.5686
   2296.      	    7.5904
  2296.5      	    7.6122
   2297.      	     7.634
  2297.5      	    7.6558
   2298.      	    7.6776
  2298.5      	    7.6994
   2299.      	    7.7213
  2299.5      	    7.7431
   2300.      	     7.765
  2300.5      	    7.7868
   2301.      	    7.8087
  2301.5      	    7.8306
   2302.      	    7.8525
  2302.5      	    7.8744
   2303.      	    7.8963
  2303.5      	    7.9182
   2304.      	    7.9402
  2304.5      	    7.9621
   2305.      	    7.9841
  2305.5      	    8.0061
   2306.      	     8.028
  2306.5      	      8.05
   2307.      	     8.072
  2307.5      	     8.094
   2308.      	     8.116
  2308.5      	    8.1381
   2309.      	    8.1601
  2309.5      	    8.1821
   2310.      	    8.2042
  2310.5      	    8.2262
   2311.      	    8.2483
  2311.5      	    8.2704
   2312.      	    8.2925
  2312.5      	    8.3146
   2313.      	    8.3367
  2313.5      	    8.3588
   2314.      	    8.3809
  2314.5      	    8.4031
   2315.      	    8.4252
  2315.5      	    8.4473
   2316.      	    8.4695
  2316.5      	    8.4917
   2317.      	    8.5139
  2317.5      	     8.536
   2318.      	    8.5582
  2318.5      	    8.5804
   2319.      	    8.6026
  2319.5      	    8.6249
   2320.      	    8.6471
  2320.5      	    8.6693
   2321.      	    8.6916
  2321.5      	    8.7138
   2322.      	    8.7361
  2322.5      	    8.7583
   2323.      	    8.7806
  2323.5      	    8.8029
   2324.      	    8.8252
  2324.5      	    8.8475
   2325.      	    8.8698
  2325.5      	    8.8921
   2326.      	    8.9144
  2326.5      	    8.9368
   2327.      	    8.9591
  2327.5      	    8.9814
   2328.      	    9.0038
  2328.5      	    9.0262
   2329.      	    9.0485
  2329.5      	    9.0709
   2330.      	    9.0933
  2330.5      	    9.1157
   2331.      	    9.1381
  2331.5      	    9.1605
   2332.      	    9.1829
  2332.5      	    9.2053
   2333.      	    9.2277
  2333.5      	    9.2502
   2334.      	    9.2726
  2334.5      	    9.2951
   2335.      	    9.3175
  2335.5      	      9.34
   2336.      	    9.3625
  2336.5      	    9.3849
   2337.      	    9.4074
  2337.5      	    9.4299
   2338.      	    9.4524
  2338.5      	    9.4749
   2339.      	    9.4974
  2339.5      	    9.5199
   2340.      	    9.5425
  2340.5      	     9.565
   2341.      	    9.5875
  2341.5      	    9.6101
   2342.      	    9.6326
  2342.5      	    9.6552
   2343.      	    9.6778
  2343.5      	    9.7003
   2344.      	    9.7229
  2344.5      	    9.7455
   2345.      	    9.7681
  2345.5      	    9.7907
   2346.      	    9.8133
  2346.5      	    9.8359
   2347.      	    9.8585
  2347.5      	    9.8811
   2348.      	    9.9038
  2348.5      	    9.9264
   2349.      	     9.949
  2349.5      	    9.9717
   2350.      	    9.9943
  2350.5      	    10.017
   2351.      	     10.04
  2351.5      	    10.062
   2352.      	    10.085
  2352.5      	    10.108
   2353.      	     10.13
  2353.5      	    10.153
   2354.      	    10.176
  2354.5      	    10.199
   2355.      	    10.221
  2355.5      	    10.244
   2356.      	    10.267
  2356.5      	    10.289
   2357.      	    10.312
  2357.5      	    10.335
   2358.      	    10.358
  2358.5      	     10.38
   2359.      	    10.403
  2359.5      	    10.426
   2360.      	    10.449
  2360.5      	    10.471
   2361.      	    10.494
  2361.5      	    10.517
   2362.      	     10.54
  2362.5      	    10.563
   2363.      	    10.585
  2363.5      	    10.608
   2364.      	    10.631
  2364.5      	    10.654
   2365.      	    10.677
  2365.5      	      10.7
   2366.      	    10.722
  2366.5      	    10.745
   2367.      	    10.768
  2367.5      	    10.791
   2368.      	    10.814
  2368.5      	    10.837
   2369.      	     10.86
  2369.5      	    10.882
   2370.      	    10.905
  2370.5      	    10.928
   2371.      	    10.951
  2371.5      	    10.974
   2372.      	    10.997
  2372.5      	     11.02
   2373.      	    11.043
  2373.5      	    11.066
   2374.      	    11.088
  2374.5      	    11.111
   2375.      	    11.134
  2375.5      	    11.157
   2376.      	     11.18
  2376.5      	    11.203
   2377.      	    11.226
  2377.5      	    11.249
   2378.      	    11.272
  2378.5      	    11.295
   2379.      	    11.318
  2379.5      	    11.341
   2380.      	    11.364
  2380.5      	    11.387
   2381.      	     11.41
  2381.5      	    11.433
   2382.      	    11.456
  2382.5      	    11.479
   2383.      	    11.502
  2383.5      	    11.525
   2384.      	    11.548
  2384.5      	    11.571
   2385.      	    11.594
  2385.5      	    11.617
   2386.      	     11.64
  2386.5      	    11.663
   2387.      	    11.686
  2387.5      	    11.709
   2388.      	    11.732
  2388.5      	    11.755
   2389.      	    11.778
  2389.5      	    11.801
   2390.      	    11.824
  2390.5      	    11.847
   2391.      	    11.871
  2391.5      	    11.894
   2392.      	    11.917
  2392.5      	     11.94
   2393.      	    11.963
  2393.5      	    11.986
   2394.      	    12.009
  2394.5      	    12.032
   2395.      	    12.055
  2395.5      	    12.078
   2396.      	    12.101
  2396.5      	    12.125
   2397.      	    12.148
  2397.5      	    12.171
   2398.      	    12.194
  2398.5      	    12.217
   2399.      	     12.24
  2399.5      	    12.263
   2400.      	    12.287
  2400.5      	     12.31
   2401.      	    12.333
  2401.5      	    12.356
   2402.      	    12.379
  2402.5      	    12.402
   2403.      	    12.426
  2403.5      	    12.449
   2404.      	    12.472
  2404.5      	    12.495
   2405.      	    12.518
  2405.5      	    12.541
   2406.      	    12.565
  2406.5      	    12.588
   2407.      	    12.611
  2407.5      	    12.634
   2408.      	    12.657
  2408.5      	    12.681
   2409.      	    12.704
  2409.5      	    12.727
   2410.      	     12.75
  2410.5      	    12.774
   2411.      	    12.797
  2411.5      	     12.82
   2412.      	    12.843
  2412.5      	    12.867
   2413.      	     12.89
  2413.5      	    12.913
   2414.      	    12.936
  2414.5      	     12.96
   2415.      	    12.983
  2415.5      	    13.006
   2416.      	    13.029
  2416.5      	    13.053
   2417.      	    13.076
  2417.5      	    13.099
   2418.      	    13.122
  2418.5      	    13.146
   2419.      	    13.169
  2419.5      	    13.192
   2420.      	    13.216
  2420.5      	    13.239
   2421.      	    13.262
  2421.5      	    13.286
   2422.      	    13.309
  2422.5      	    13.332
   2423.      	    13.355
  2423.5      	    13.379
   2424.      	    13.402
  2424.5      	    13.425
   2425.      	    13.449
  2425.5      	    13.472
   2426.      	    13.495
  2426.5      	    13.519
   2427.      	    13.542
  2427.5      	    13.565
   2428.      	    13.589
  2428.5      	    13.612
   2429.      	    13.635
  2429.5      	    13.659
   2430.      	    13.682
  2430.5      	    13.706
   2431.      	    13.729
  2431.5      	    13.752
   2432.      	    13.776
  2432.5      	    13.799
   2433.      	    13.822
  2433.5      	    13.846
   2434.      	    13.869
  2434.5      	    13.893
   2435.      	    13.916
  2435.5      	    13.939
   2436.      	    13.963
  2436.5      	    13.986
   2437.      	     14.01
  2437.5      	    14.033
   2438.      	    14.056
  2438.5      	     14.08
   2439.      	    14.103
  2439.5      	    14.127
   2440.      	     14.15
  2440.5      	    14.173
   2441.      	    14.197
  2441.5      	     14.22
   2442.      	    14.244
  2442.5      	    14.267
   2443.      	    14.291
  2443.5      	    14.314
   2444.      	    14.338
  2444.5      	    14.361
   2445.      	    14.384
  2445.5      	    14.408
   2446.      	    14.431
  2446.5      	    14.455
   2447.      	    14.478
  2447.5      	    14.502
   2448.      	    14.525
  2448.5      	    14.549
   2449.      	    14.572
  2449.5      	    14.596
   2450.      	    14.619
  2450.5      	    14.643
   2451.      	    14.666
  2451.5      	     14.69
   2452.      	    14.713
  2452.5      	    14.737
   2453.      	     14.76
  2453.5      	    14.784
   2454.      	    14.807
  2454.5      	    14.831
   2455.      	    14.854
  2455.5      	    14.878
   2456.      	    14.901
  2456.5      	    14.925
   2457.      	    14.948
  2457.5      	    14.972
   2458.      	    14.995
  2458.5      	    15.019
   2459.      	    15.042
  2459.5      	    15.066
   2460.      	    15.089
  2460.5      	    15.113
   2461.      	    15.136
  2461.5      	     15.16
   2462.      	    15.183
  2462.5      	    15.207
   2463.      	     15.23
  2463.5      	    15.254
   2464.      	    15.278
  2464.5      	    15.301
   2465.      	    15.325
  2465.5      	    15.348
   2466.      	    15.372
  2466.5      	    15.395
   2467.      	    15.419
  2467.5      	    15.442
   2468.      	    15.466
  2468.5      	     15.49
   2469.      	    15.513
  2469.5      	    15.537
   2470.      	     15.56
  2470.5      	    15.584
   2471.      	    15.607
  2471.5      	    15.631
   2472.      	    15.655
  2472.5      	    15.678
   2473.      	    15.702
  2473.5      	    15.725
   2474.      	    15.749
  2474.5      	    15.773
   2475.      	    15.796
  2475.5      	     15.82
   2476.      	    15.843
  2476.5      	    15.867
   2477.      	    15.891
  2477.5      	    15.914
   2478.      	    15.938
  2478.5      	    15.961
   2479.      	    15.985
  2479.5      	    16.009
   2480.      	    16.032
  2480.5      	    16.056
   2481.      	     16.08
  2481.5      	    16.103
   2482.      	    16.127
  2482.5      	     16.15
   2483.      	    16.174
  2483.5      	    16.198
   2484.      	    16.221
  2484.5      	    16.245
   2485.      	    16.269
  2485.5      	    16.292
   2486.      	    16.316
  2486.5      	     16.34
   2487.      	    16.363
  2487.5      	    16.387
   2488.      	    16.411
  2488.5      	    16.434
   2489.      	    16.458
  2489.5      	    16.482
   2490.      	    16.505
  2490.5      	    16.529
   2491.      	    16.553
  2491.5      	    16.576
   2492.      	      16.6
  2492.5      	    16.624
   2493.      	    16.647
  2493.5      	    16.671
   2494.      	    16.695
  2494.5      	    16.718
   2495.      	    16.742
  2495.5      	    16.766
   2496.      	    16.789
  2496.5      	    16.813
   2497.      	    16.837
  2497.5      	     16.86
   2498.      	    16.884
  2498.5      	    16.908
   2499.      	    16.932
  2499.5      	    16.955
   2500.      	    16.979
  2500.5      	    17.003
   2501.      	    17.026
  2501.5      	     17.05
   2502.      	    17.074
  2502.5      	    17.098
   2503.      	    17.121
  2503.5      	    17.145
   2504.      	    17.169
  2504.5      	    17.192
   2505.      	    17.216
  2505.5      	     17.24
   2506.      	    17.264
  2506.5      	    17.287
   2507.      	    17.311
  2507.5      	    17.335
   2508.      	    17.359
  2508.5      	    17.382
   2509.      	    17.406
  2509.5      	     17.43
   2510.      	    17.454
  2510.5      	    17.477
   2511.      	    17.501
  2511.5      	    17.525
   2512.      	    17.548
  2512.5      	    17.572
   2513.      	    17.596
  2513.5      	     17.62
   2514.      	    17.644
  2514.5      	    17.667
   2515.      	    17.691
  2515.5      	    17.715
   2516.      	    17.739
  2516.5      	    17.762
   2517.      	    17.786
  2517.5      	     17.81
   2518.      	    17.834
  2518.5      	    17.857
   2519.      	    17.881
  2519.5      	    17.905
   2520.      	    17.929
  2520.5      	    17.953
   2521.      	    17.976
  2521.5      	       18.
   2522.      	    18.024
  2522.5      	    18.048
   2523.      	    18.071
  2523.5      	    18.095
   2524.      	    18.119
  2524.5      	    18.143
   2525.      	    18.167
  2525.5      	     18.19
   2526.      	    18.214
  2526.5      	    18.238
   2527.      	    18.262
  2527.5      	    18.286
   2528.      	    18.309
  2528.5      	    18.333
   2529.      	    18.357
  2529.5      	    18.381
   2530.      	    18.405
  2530.5      	    18.428
   2531.      	    18.452
  2531.5      	    18.476
   2532.      	      18.5
  2532.5      	    18.524
   2533.      	    18.548
  2533.5      	    18.571
   2534.      	    18.595
  2534.5      	    18.619
   2535.      	    18.643
  2535.5      	    18.667
   2536.      	    18.691
  2536.5      	    18.714
   2537.      	    18.738
  2537.5      	    18.762
   2538.      	    18.786
  2538.5      	     18.81
   2539.      	    18.834
  2539.5      	    18.857
   2540.      	    18.881
  2540.5      	    18.905
   2541.      	    18.929
  2541.5      	    18.953
   2542.      	    18.977
  2542.5      	       19.
   2543.      	    19.024
  2543.5      	    19.048
   2544.      	    19.072
  2544.5      	    19.096
   2545.      	     19.12
  2545.5      	    19.144
   2546.      	    19.167
  2546.5      	    19.191
   2547.      	    19.215
  2547.5      	    19.239
   2548.      	    19.263
  2548.5      	    19.287
   2549.      	    19.311
  2549.5      	    19.334
   2550.      	    19.358
  2550.5      	    19.382
   2551.      	    19.406
  2551.5      	     19.43
   2552.      	    19.454
  2552.5      	    19.478
   2553.      	    19.502
  2553.5      	    19.525
   2554.      	    19.549
  2554.5      	    19.573
   2555.      	    19.597
  2555.5      	    19.621
   2556.      	    19.645
  2556.5      	    19.669
   2557.      	    19.693
  2557.5      	    19.717
   2558.      	     19.74
  2558.5      	    19.764
   2559.      	    19.788
  2559.5      	    19.812
   2560.      	    19.836
  2560.5      	     19.86
   2561.      	    19.884
  2561.5      	    19.908
   2562.      	    19.932
  2562.5      	    19.956
   2563.      	    19.979
  2563.5      	    20.003
   2564.      	    20.027
  2564.5      	    20.051
   2565.      	    20.075
  2565.5      	    20.099
   2566.      	    20.123
  2566.5      	    20.147
   2567.      	    20.171
  2567.5      	    20.195
   2568.      	    20.219
  2568.5      	    20.243
   2569.      	    20.266
  2569.5      	     20.29
   2570.      	    20.314
  2570.5      	    20.338
   2571.      	    20.362
  2571.5      	    20.386
   2572.      	     20.41
  2572.5      	    20.434
   2573.      	    20.458
  2573.5      	    20.482
   2574.      	    20.506
  2574.5      	     20.53
   2575.      	    20.554
  2575.5      	    20.578
   2576.      	    20.602
  2576.5      	    20.625
   2577.      	    20.649
  2577.5      	    20.673
   2578.      	    20.697
  2578.5      	    20.721
   2579.      	    20.745
  2579.5      	    20.769
   2580.      	    20.793
  2580.5      	    20.817
   2581.      	    20.841
  2581.5      	    20.865
   2582.      	    20.889
  2582.5      	    20.913
   2583.      	    20.937
  2583.5      	    20.961
   2584.      	    20.985
  2584.5      	    21.009
   2585.      	    21.033
  2585.5      	    21.057
   2586.      	    21.081
  2586.5      	    21.105
   2587.      	    21.129
  2587.5      	    21.152
   2588.      	    21.176
  2588.5      	      21.2
   2589.      	    21.224
  2589.5      	    21.248
   2590.      	    21.272
  2590.5      	    21.296
   2591.      	     21.32
  2591.5      	    21.344
   2592.      	    21.368
  2592.5      	    21.392
   2593.      	    21.416
  2593.5      	     21.44
   2594.      	    21.464
  2594.5      	    21.488
   2595.      	    21.512
  2595.5      	    21.536
   2596.      	     21.56
  2596.5      	    21.584
   2597.      	    21.608
  2597.5      	    21.632
   2598.      	    21.656
  2598.5      	     21.68
   2599.      	    21.704
  2599.5      	    21.728
   2600.      	    21.752
  2600.5      	    21.776
   2601.      	      21.8
  2601.5      	    21.824
   2602.      	    21.848
  2602.5      	    21.872
   2603.      	    21.896
  2603.5      	     21.92
   2604.      	    21.944
  2604.5      	    21.968
   2605.      	    21.992
  2605.5      	    22.016
   2606.      	     22.04
  2606.5      	    22.064
   2607.      	    22.088
  2607.5      	    22.112
   2608.      	    22.136
  2608.5      	     22.16
   2609.      	    22.184
  2609.5      	    22.208
   2610.      	    22.232
  2610.5      	    22.256
   2611.      	     22.28
  2611.5      	    22.304
   2612.      	    22.328
  2612.5      	    22.352
   2613.      	    22.376
  2613.5      	      22.4
   2614.      	    22.424
  2614.5      	    22.448
   2615.      	    22.472
  2615.5      	    22.496
   2616.      	     22.52
  2616.5      	    22.544
   2617.      	    22.569
  2617.5      	    22.593
   2618.      	    22.617
  2618.5      	    22.641
   2619.      	    22.665
  2619.5      	    22.689
   2620.      	    22.713
  2620.5      	    22.737
   2621.      	    22.761
  2621.5      	    22.785
   2622.      	    22.809
  2622.5      	    22.833
   2623.      	    22.857
  2623.5      	    22.881
   2624.      	    22.905
  2624.5      	    22.929
   2625.      	    22.953
  2625.5      	    22.977
   2626.      	    23.001
  2626.5      	    23.025
   2627.      	    23.049
  2627.5      	    23.073
   2628.      	    23.097
  2628.5      	    23.121
   2629.      	    23.146
  2629.5      	     23.17
   2630.      	    23.194
  2630.5      	    23.218
   2631.      	    23.242
  2631.5      	    23.266
   2632.      	     23.29
  2632.5      	    23.314
   2633.      	    23.338
  2633.5      	    23.362
   2634.      	    23.386
  2634.5      	     23.41
   2635.      	    23.434
  2635.5      	    23.458
   2636.      	    23.482
  2636.5      	    23.506
   2637.      	     23.53
  2637.5      	    23.555
   2638.      	    23.579
  2638.5      	    23.603
   2639.      	    23.627
  2639.5      	    23.651
   2640.      	    23.675
  2640.5      	    23.699
   2641.      	    23.723
  2641.5      	    23.747
   2642.      	    23.771
  2642.5      	    23.795
   2643.      	    23.819
  2643.5      	    23.843
   2644.      	    23.868
  2644.5      	    23.892
   2645.      	    23.916
  2645.5      	     23.94
   2646.      	    23.964
  2646.5      	    23.988
   2647.      	    24.012
  2647.5      	    24.036
   2648.      	     24.06
  2648.5      	    24.084
   2649.      	    24.108
  2649.5      	    24.132
   2650.      	    24.157
  2650.5      	    24.181
   2651.      	    24.205
  2651.5      	    24.229
   2652.      	    24.253
  2652.5      	    24.277
   2653.      	    24.301
  2653.5      	    24.325
   2654.      	    24.349
  2654.5      	    24.373
   2655.      	    24.398
  2655.5      	    24.422
   2656.      	    24.446
  2656.5      	     24.47
   2657.      	    24.494
  2657.5      	    24.518
   2658.      	    24.542
  2658.5      	    24.566
   2659.      	     24.59
  2659.5      	    24.614
   2660.      	    24.639
  2660.5      	    24.663
   2661.      	    24.687
  2661.5      	    24.711
   2662.      	    24.735
  2662.5      	    24.759
   2663.      	    24.783
  2663.5      	    24.807
   2664.      	    24.831
  2664.5      	    24.856
   2665.      	     24.88
  2665.5      	    24.904
   2666.      	    24.928
  2666.5      	    24.952
   2667.      	    24.976
  2667.5      	       25.
   2668.      	    25.024
  2668.5      	    25.048
   2669.      	    25.073
  2669.5      	    25.097
   2670.      	    25.121
  2670.5      	    25.145
   2671.      	    25.169
  2671.5      	    25.193
   2672.      	    25.217
  2672.5      	    25.241
   2673.      	    25.266
  2673.5      	     25.29
   2674.      	    25.314
  2674.5      	    25.338
   2675.      	    25.362
  2675.5      	    25.386
   2676.      	     25.41
  2676.5      	    25.435
   2677.      	    25.459
  2677.5      	    25.483
   2678.      	    25.507
  2678.5      	    25.531
   2679.      	    25.555
  2679.5      	    25.579
   2680.      	    25.603
  2680.5      	    25.628
   2681.      	    25.652
  2681.5      	    25.676
   2682.      	      25.7
  2682.5      	    25.724
   2683.      	    25.748
  2683.5      	    25.772
   2684.      	    25.797
  2684.5      	    25.821
   2685.      	    25.845
  2685.5      	    25.869
   2686.      	    25.893
  2686.5      	    25.917
   2687.      	    25.941
  2687.5      	    25.966
   2688.      	     25.99
  2688.5      	    26.014
   2689.      	    26.038
  2689.5      	    26.062
   2690.      	    26.086
  2690.5      	     26.11
   2691.      	    26.135
  2691.5      	    26.159
   2692.      	    26.183
  2692.5      	    26.207
   2693.      	    26.231
  2693.5      	    26.255
   2694.      	     26.28
  2694.5      	    26.304
   2695.      	    26.328
  2695.5      	    26.352
   2696.      	    26.376
  2696.5      	      26.4
   2697.      	    26.425
  2697.5      	    26.449
   2698.      	    26.473
  2698.5      	    26.497
   2699.      	    26.521
  2699.5      	    26.545
   2700.      	     26.57
  2700.5      	    26.594
   2701.      	    26.618
  2701.5      	    26.642
   2702.      	    26.666
  2702.5      	     26.69
   2703.      	    26.715
  2703.5      	    26.739
   2704.      	    26.763
  2704.5      	    26.787
   2705.      	    26.811
  2705.5      	    26.835
   2706.      	     26.86
  2706.5      	    26.884
   2707.      	    26.908
  2707.5      	    26.932
   2708.      	    26.956
  2708.5      	     26.98
   2709.      	    27.005
  2709.5      	    27.029
   2710.      	    27.053
  2710.5      	    27.077
   2711.      	    27.101
  2711.5      	    27.125
   2712.      	     27.15
  2712.5      	    27.174
   2713.      	    27.198
  2713.5      	    27.222
   2714.      	    27.246
  2714.5      	    27.271
   2715.      	    27.295
  2715.5      	    27.319
   2716.      	    27.343
  2716.5      	    27.367
   2717.      	    27.391
  2717.5      	    27.416
   2718.      	     27.44
  2718.5      	    27.464
   2719.      	    27.488
  2719.5      	    27.512
   2720.      	    27.537
  2720.5      	    27.561
   2721.      	    27.585
  2721.5      	    27.609
   2722.      	    27.633
  2722.5      	    27.658
   2723.      	    27.682
  2723.5      	    27.706
   2724.      	     27.73
  2724.5      	    27.754
   2725.      	    27.779
  2725.5      	    27.803
   2726.      	    27.827
  2726.5      	    27.851
   2727.      	    27.875
  2727.5      	      27.9
   2728.      	    27.924
  2728.5      	    27.948
   2729.      	    27.972
  2729.5      	    27.996
   2730.      	    28.021
  2730.5      	    28.045
   2731.      	    28.069
  2731.5      	    28.093
   2732.      	    28.117
  2732.5      	    28.142
   2733.      	    28.166
  2733.5      	     28.19
   2734.      	    28.214
  2734.5      	    28.238
   2735.      	    28.263
  2735.5      	    28.287
   2736.      	    28.311
  2736.5      	    28.335
   2737.      	    28.359
  2737.5      	    28.384
   2738.      	    28.408
  2738.5      	    28.432
   2739.      	    28.456
  2739.5      	    28.481
   2740.      	    28.505
  2740.5      	    28.529
   2741.      	    28.553
  2741.5      	    28.577
   2742.      	    28.602
  2742.5      	    28.626
   2743.      	     28.65
  2743.5      	    28.674
   2744.      	    28.698
  2744.5      	    28.723
   2745.      	    28.747
  2745.5      	    28.771
   2746.      	    28.795
  2746.5      	     28.82
   2747.      	    28.844
  2747.5      	    28.868
   2748.      	    28.892
  2748.5      	    28.916
   2749.      	    28.941
  2749.5      	    28.965
   2750.      	    28.989
  2750.5      	    29.013
   2751.      	    29.038
  2751.5      	    29.062
   2752.      	    29.086
  2752.5      	     29.11
   2753.      	    29.134
  2753.5      	    29.159
   2754.      	    29.183
  2754.5      	    29.207
   2755.      	    29.231
  2755.5      	    29.256
   2756.      	     29.28
  2756.5      	    29.304
   2757.      	    29.328
  2757.5      	    29.353
   2758.      	    29.377
  2758.5      	    29.401
   2759.      	    29.425
  2759.5      	    29.449
   2760.      	    29.474
  2760.5      	    29.498
   2761.      	    29.522
  2761.5      	    29.546
   2762.      	    29.571
  2762.5      	    29.595
   2763.      	    29.619
  2763.5      	    29.643
   2764.      	    29.668
  2764.5      	    29.692
   2765.      	    29.716
  2765.5      	     29.74
   2766.      	    29.765
  2766.5      	    29.789
   2767.      	    29.813
  2767.5      	    29.837
   2768.      	    29.862
  2768.5      	    29.886
   2769.      	     29.91
  2769.5      	    29.934
   2770.      	    29.958
  2770.5      	    29.983
   2771.      	    30.007
  2771.5      	    30.031
   2772.      	    30.055
  2772.5      	     30.08
   2773.      	    30.104
  2773.5      	    30.128
   2774.      	    30.152
  2774.5      	    30.177
   2775.      	    30.201
  2775.5      	    30.225
   2776.      	    30.249
  2776.5      	    30.274
   2777.      	    30.298
  2777.5      	    30.322
   2778.      	    30.346
  2778.5      	    30.371
   2779.      	    30.395
  2779.5      	    30.419
   2780.      	    30.443
  2780.5      	    30.468
   2781.      	    30.492
  2781.5      	    30.516
   2782.      	    30.541
  2782.5      	    30.565
   2783.      	    30.589
  2783.5      	    30.613
   2784.      	    30.638
  2784.5      	    30.662
   2785.      	    30.686
  2785.5      	     30.71
   2786.      	    30.735
  2786.5      	    30.759
   2787.      	    30.783
  2787.5      	    30.807
   2788.      	    30.832
  2788.5      	    30.856
   2789.      	     30.88
  2789.5      	    30.904
   2790.      	    30.929
  2790.5      	    30.953
   2791.      	    30.977
  2791.5      	    31.001
   2792.      	    31.026
  2792.5      	     31.05
   2793.      	    31.074
  2793.5      	    31.099
   2794.      	    31.123
  2794.5      	    31.147
   2795.      	    31.171
  2795.5      	    31.196
   2796.      	     31.22
  2796.5      	    31.244
   2797.      	    31.268
  2797.5      	    31.293
   2798.      	    31.317
  2798.5      	    31.341
   2799.      	    31.366
  2799.5      	     31.39
   2800.      	    31.414
  2800.5      	    31.438
   2801.      	    31.463
  2801.5      	    31.487
   2802.      	    31.511
  2802.5      	    31.535
   2803.      	     31.56
  2803.5      	    31.584
   2804.      	    31.608
  2804.5      	    31.633
   2805.      	    31.657
  2805.5      	    31.681
   2806.      	    31.705
  2806.5      	     31.73
   2807.      	    31.754
  2807.5      	    31.778
   2808.      	    31.802
  2808.5      	    31.827
   2809.      	    31.851
  2809.5      	    31.875
   2810.      	      31.9
  2810.5      	    31.924
   2811.      	    31.948
  2811.5      	    31.972
   2812.      	    31.997
  2812.5      	    32.021
   2813.      	    32.045
  2813.5      	     32.07
   2814.      	    32.094
  2814.5      	    32.118
   2815.      	    32.142
  2815.5      	    32.167
   2816.      	    32.191
  2816.5      	    32.215
   2817.      	     32.24
  2817.5      	    32.264
   2818.      	    32.288
  2818.5      	    32.312
   2819.      	    32.337
  2819.5      	    32.361
   2820.      	    32.385
  2820.5      	     32.41
   2821.      	    32.434
  2821.5      	    32.458
   2822.      	    32.482
  2822.5      	    32.507
   2823.      	    32.531
  2823.5      	    32.555
   2824.      	     32.58
  2824.5      	    32.604
   2825.      	    32.628
  2825.5      	    32.653
   2826.      	    32.677
  2826.5      	    32.701
   2827.      	    32.725
  2827.5      	     32.75
   2828.      	    32.774
  2828.5      	    32.798
   2829.      	    32.823
  2829.5      	    32.847
   2830.      	    32.871
  2830.5      	    32.895
   2831.      	     32.92
  2831.5      	    32.944
   2832.      	    32.968
  2832.5      	    32.993
   2833.      	    33.017
  2833.5      	    33.041
   2834.      	    33.066
  2834.5      	     33.09
   2835.      	    33.114
  2835.5      	    33.138
   2836.      	    33.163
  2836.5      	    33.187
   2837.      	    33.211
  2837.5      	    33.236
   2838.      	     33.26
  2838.5      	    33.284
   2839.      	    33.309
  2839.5      	    33.333
   2840.      	    33.357
  2840.5      	    33.382
   2841.      	    33.406
  2841.5      	     33.43
   2842.      	    33.454
  2842.5      	    33.479
   2843.      	    33.503
  2843.5      	    33.527
   2844.      	    33.552
  2844.5      	    33.576
   2845.      	      33.6
  2845.5      	    33.625
   2846.      	    33.649
  2846.5      	    33.673
   2847.      	    33.698
  2847.5      	    33.722
   2848.      	    33.746
  2848.5      	     33.77
   2849.      	    33.795
  2849.5      	    33.819
   2850.      	    33.843
  2850.5      	    33.868
   2851.      	    33.892
  2851.5      	    33.916
   2852.      	    33.941
  2852.5      	    33.965
   2853.      	    33.989
  2853.5      	    34.014
   2854.      	    34.038
  2854.5      	    34.062
   2855.      	    34.087
  2855.5      	    34.111
   2856.      	    34.135
  2856.5      	    34.159
   2857.      	    34.184
  2857.5      	    34.208
   2858.      	    34.232
  2858.5      	    34.257
   2859.      	    34.281
  2859.5      	    34.305
   2860.      	     34.33
  2860.5      	    34.354
   2861.      	    34.378
  2861.5      	    34.403
   2862.      	    34.427
  2862.5      	    34.451
   2863.      	    34.476
  2863.5      	      34.5
   2864.      	    34.524
  2864.5      	    34.549
   2865.      	    34.573
  2865.5      	    34.597
   2866.      	    34.622
  2866.5      	    34.646
   2867.      	     34.67
  2867.5      	    34.695
   2868.      	    34.719
  2868.5      	    34.743
   2869.      	    34.767
  2869.5      	    34.792
   2870.      	    34.816
  2870.5      	     34.84
   2871.      	    34.865
  2871.5      	    34.889
   2872.      	    34.913
  2872.5      	    34.938
   2873.      	    34.962
  2873.5      	    34.986
   2874.      	    35.011
  2874.5      	    35.035
   2875.      	    35.059
  2875.5      	    35.084
   2876.      	    35.108
  2876.5      	    35.132
   2877.      	    35.157
  2877.5      	    35.181
   2878.      	    35.205
  2878.5      	     35.23
   2879.      	    35.254
  2879.5      	    35.278
   2880.      	    35.303
  2880.5      	    35.327
   2881.      	    35.351
  2881.5      	    35.376
   2882.      	      35.4
  2882.5      	    35.424
   2883.      	    35.449
  2883.5      	    35.473
   2884.      	    35.497
  2884.5      	    35.522
   2885.      	    35.546
  2885.5      	     35.57
   2886.      	    35.595
  2886.5      	    35.619
   2887.      	    35.643
  2887.5      	    35.668
   2888.      	    35.692
  2888.5      	    35.716
   2889.      	    35.741
  2889.5      	    35.765
   2890.      	    35.789
  2890.5      	    35.814
   2891.      	    35.838
  2891.5      	    35.862
   2892.      	    35.887
  2892.5      	    35.911
   2893.      	    35.936
  2893.5      	     35.96
   2894.      	    35.984
  2894.5      	    36.009
   2895.      	    36.033
  2895.5      	    36.057
   2896.      	    36.082
  2896.5      	    36.106
   2897.      	     36.13
  2897.5      	    36.155
   2898.      	    36.179
  2898.5      	    36.203
   2899.      	    36.228
  2899.5      	    36.252
   2900.      	    36.276
  2900.5      	    36.301
   2901.      	    36.325
  2901.5      	    36.349
   2902.      	    36.374
  2902.5      	    36.398
   2903.      	    36.422
  2903.5      	    36.447
   2904.      	    36.471
  2904.5      	    36.495
   2905.      	     36.52
  2905.5      	    36.544
   2906.      	    36.568
  2906.5      	    36.593
   2907.      	    36.617
  2907.5      	    36.642
   2908.      	    36.666
  2908.5      	     36.69
   2909.      	    36.715
  2909.5      	    36.739
   2910.      	    36.763
  2910.5      	    36.788
   2911.      	    36.812
  2911.5      	    36.836
   2912.      	    36.861
  2912.5      	    36.885
   2913.      	    36.909
  2913.5      	    36.934
   2914.      	    36.958
  2914.5      	    36.982
   2915.      	    37.007
  2915.5      	    37.031
   2916.      	    37.056
  2916.5      	     37.08
   2917.      	    37.104
  2917.5      	    37.129
   2918.      	    37.153
  2918.5      	    37.177
   2919.      	    37.202
  2919.5      	    37.226
   2920.      	     37.25
  2920.5      	    37.275
   2921.      	    37.299
  2921.5      	    37.323
   2922.      	    37.348
  2922.5      	    37.372
   2923.      	    37.397
  2923.5      	    37.421
   2924.      	    37.445
  2924.5      	     37.47
   2925.      	    37.494
  2925.5      	    37.518
   2926.      	    37.543
  2926.5      	    37.567
   2927.      	    37.591
  2927.5      	    37.616
   2928.      	     37.64
  2928.5      	    37.664
   2929.      	    37.689
  2929.5      	    37.713
   2930.      	    37.738
  2930.5      	    37.762
   2931.      	    37.786
  2931.5      	    37.811
   2932.      	    37.835
  2932.5      	    37.859
   2933.      	    37.884
  2933.5      	    37.908
   2934.      	    37.932
  2934.5      	    37.957
   2935.      	    37.981
  2935.5      	    38.006
   2936.      	     38.03
  2936.5      	    38.054
   2937.      	    38.079
  2937.5      	    38.103
   2938.      	    38.127
  2938.5      	    38.152
   2939.      	    38.176
  2939.5      	      38.2
   2940.      	    38.225
  2940.5      	    38.249
   2941.      	    38.274
  2941.5      	    38.298
   2942.      	    38.322
  2942.5      	    38.347
   2943.      	    38.371
  2943.5      	    38.395
   2944.      	     38.42
  2944.5      	    38.444
   2945.      	    38.469
  2945.5      	    38.493
   2946.      	    38.517
  2946.5      	    38.542
   2947.      	    38.566
  2947.5      	     38.59
   2948.      	    38.615
  2948.5      	    38.639
   2949.      	    38.664
  2949.5      	    38.688
   2950.      	    38.712
  2950.5      	    38.737
   2951.      	    38.761
  2951.5      	    38.785
   2952.      	     38.81
  2952.5      	    38.834
   2953.      	    38.859
  2953.5      	    38.883
   2954.      	    38.907
  2954.5      	    38.932
   2955.      	    38.956
  2955.5      	     38.98
   2956.      	    39.005
  2956.5      	    39.029
   2957.      	    39.054
  2957.5      	    39.078
   2958.      	    39.102
  2958.5      	    39.127
   2959.      	    39.151
  2959.5      	    39.175
   2960.      	      39.2
  2960.5      	    39.224
   2961.      	    39.249
  2961.5      	    39.273
   2962.      	    39.297
  2962.5      	    39.322
   2963.      	    39.346
  2963.5      	     39.37
   2964.      	    39.395
  2964.5      	    39.419
   2965.      	    39.444
  2965.5      	    39.468
   2966.      	    39.492
  2966.5      	    39.517
   2967.      	    39.541
  2967.5      	    39.565
   2968.      	     39.59
  2968.5      	    39.614
   2969.      	    39.639
  2969.5      	    39.663
   2970.      	    39.687
  2970.5      	    39.712
   2971.      	    39.736
  2971.5      	    39.761
   2972.      	    39.785
  2972.5      	    39.809
   2973.      	    39.834
  2973.5      	    39.858
   2974.      	    39.882
  2974.5      	    39.907
   2975.      	    39.931
  2975.5      	    39.956
   2976.      	     39.98
  2976.5      	    40.004
   2977.      	    40.029
  2977.5      	    40.053
   2978.      	    40.078
  2978.5      	    40.102
   2979.      	    40.126
  2979.5      	    40.151
   2980.      	    40.175
  2980.5      	    40.199
   2981.      	    40.224
  2981.5      	    40.248
   2982.      	    40.273
  2982.5      	    40.297
   2983.      	    40.321
  2983.5      	    40.346
   2984.      	     40.37
  2984.5      	    40.395
   2985.      	    40.419
  2985.5      	    40.443
   2986.      	    40.468
  2986.5      	    40.492
   2987.      	    40.517
  2987.5      	    40.541
   2988.      	    40.565
  2988.5      	     40.59
   2989.      	    40.614
  2989.5      	    40.639
   2990.      	    40.663
  2990.5      	    40.687
   2991.      	    40.712
  2991.5      	    40.736
   2992.      	     40.76
  2992.5      	    40.785
   2993.      	    40.809
  2993.5      	    40.834
   2994.      	    40.858
  2994.5      	    40.882
   2995.      	    40.907
  2995.5      	    40.931
   2996.      	    40.956
  2996.5      	     40.98
   2997.      	    41.004
  2997.5      	    41.029
   2998.      	    41.053
  2998.5      	    41.078
   2999.      	    41.102
  2999.5      	    41.126
   3000.      	    41.151
