# Filter ID: ED141
# Gemini Filter Name: Hcont_G1108
# 42mm diameter BK7 5.17mm thickness
# Central Wavelength: 1.570 um
# Note: Measurements taken at room temp and then calculated to 
# 70K using correlation measurements from Cold test witness
# Created: 2012aug16
# Author: R. Carrasco
# Lambda(nm) Transmission
1530.00    0.00000
1540.00    0.00000
1545.00    0.00237
1545.10    0.00239
1545.20    0.00248
1545.30    0.00253
1545.40    0.00259
1545.50    0.00270
1545.60    0.00285
1545.70    0.00291
1545.80    0.00297
1545.90    0.00303
1546.00    0.00313
1546.10    0.00315
1546.20    0.00333
1546.30    0.00345
1546.40    0.00349
1546.50    0.00361
1546.60    0.00374
1546.70    0.00385
1546.80    0.00392
1546.90    0.00408
1547.00    0.00417
1547.10    0.00428
1547.20    0.00448
1547.30    0.00458
1547.40    0.00476
1547.50    0.00489
1547.60    0.00504
1547.70    0.00524
1547.80    0.00540
1547.90    0.00556
1548.00    0.00577
1548.10    0.00598
1548.20    0.00610
1548.30    0.00629
1548.40    0.00654
1548.50    0.00671
1548.60    0.00689
1548.70    0.00714
1548.80    0.00743
1548.90    0.00759
1549.00    0.00785
1549.10    0.00816
1549.20    0.00844
1549.30    0.00873
1549.40    0.00897
1549.50    0.00932
1549.60    0.00960
1549.70    0.00993
1549.80    0.01024
1549.90    0.01054
1550.00    0.01091
1550.10    0.01135
1550.20    0.01166
1550.30    0.01199
1550.40    0.01248
1550.50    0.01300
1550.60    0.01347
1550.70    0.01388
1550.80    0.01442
1550.90    0.01494
1551.00    0.01538
1551.10    0.01588
1551.20    0.01649
1551.30    0.01705
1551.40    0.01764
1551.50    0.01817
1551.60    0.01884
1551.70    0.01953
1551.80    0.02030
1551.90    0.02096
1552.00    0.02161
1552.10    0.02244
1552.20    0.02340
1552.30    0.02415
1552.40    0.02502
1552.50    0.02598
1552.60    0.02698
1552.70    0.02788
1552.80    0.02885
1552.90    0.02988
1553.00    0.03105
1553.10    0.03223
1553.20    0.03326
1553.30    0.03448
1553.40    0.03569
1553.50    0.03720
1553.60    0.03844
1553.70    0.03991
1553.80    0.04133
1553.90    0.04308
1554.00    0.04476
1554.10    0.04644
1554.20    0.04816
1554.30    0.05005
1554.40    0.05186
1554.50    0.05382
1554.60    0.05583
1554.70    0.05789
1554.80    0.06048
1554.90    0.06250
1555.00    0.06482
1555.10    0.06731
1555.20    0.06985
1555.30    0.07246
1555.40    0.07510
1555.50    0.07761
1555.60    0.08095
1555.70    0.08437
1555.80    0.08739
1555.90    0.09075
1556.00    0.09405
1556.10    0.09799
1556.20    0.10179
1556.30    0.10516
1556.40    0.10899
1556.50    0.11393
1556.60    0.11774
1556.70    0.12148
1556.80    0.12622
1556.90    0.13132
1557.00    0.13629
1557.10    0.14086
1557.20    0.14555
1557.30    0.15143
1557.40    0.15739
1557.50    0.16288
1557.60    0.16850
1557.70    0.17441
1557.80    0.18187
1557.90    0.18788
1558.00    0.19423
1558.10    0.20103
1558.20    0.20922
1558.30    0.21572
1558.40    0.22316
1558.50    0.23013
1558.60    0.23840
1558.70    0.24709
1558.80    0.25419
1558.90    0.26219
1559.00    0.27053
1559.10    0.28139
1559.20    0.28965
1559.30    0.29804
1559.40    0.30801
1559.50    0.31879
1559.60    0.32876
1559.70    0.33757
1559.80    0.34776
1559.90    0.35904
1560.00    0.36900
1560.10    0.37900
1560.20    0.38978
1560.30    0.40042
1560.40    0.41288
1560.50    0.42238
1560.60    0.43315
1560.70    0.44534
1560.80    0.45714
1560.90    0.46844
1561.00    0.47949
1561.10    0.49024
1561.20    0.50246
1561.30    0.51423
1561.40    0.52392
1561.50    0.53589
1561.60    0.54776
1561.70    0.55867
1561.80    0.56907
1561.90    0.57980
1562.00    0.59012
1562.10    0.60263
1562.20    0.61108
1562.30    0.62096
1562.40    0.63224
1562.50    0.64176
1562.60    0.65167
1562.70    0.66047
1562.80    0.66896
1562.90    0.67785
1563.00    0.68780
1563.10    0.69505
1563.20    0.70186
1563.30    0.70994
1563.40    0.71779
1563.50    0.72503
1563.60    0.73097
1563.70    0.73665
1563.80    0.74330
1563.90    0.74873
1564.00    0.75441
1564.10    0.75872
1564.20    0.76331
1564.30    0.76866
1564.40    0.77304
1564.50    0.77597
1564.60    0.77992
1564.70    0.78349
1564.80    0.78634
1564.90    0.78880
1565.00    0.79152
1565.10    0.79405
1565.20    0.79601
1565.30    0.79767
1565.40    0.79897
1565.50    0.80070
1565.60    0.80257
1565.70    0.80367
1565.80    0.80415
1565.90    0.80493
1566.00    0.80634
1566.10    0.80743
1566.20    0.80751
1566.30    0.80700
1566.40    0.80760
1566.50    0.80830
1566.60    0.80886
1566.70    0.80837
1566.80    0.80831
1566.90    0.80875
1567.00    0.80916
1567.10    0.80889
1567.20    0.80824
1567.30    0.80804
1567.40    0.80845
1567.50    0.80841
1567.60    0.80804
1567.70    0.80781
1567.80    0.80811
1567.90    0.80831
1568.00    0.80804
1568.10    0.80796
1568.20    0.80788
1568.30    0.80802
1568.40    0.80806
1568.50    0.80805
1568.60    0.80830
1568.70    0.80841
1568.80    0.80808
1568.90    0.80802
1569.00    0.80825
1569.10    0.80879
1569.20    0.80938
1569.30    0.80946
1569.40    0.80924
1569.50    0.80953
1569.60    0.81029
1569.70    0.81105
1569.80    0.81091
1569.90    0.81114
1570.00    0.81196
1570.10    0.81307
1570.20    0.81340
1570.30    0.81317
1570.40    0.81345
1570.50    0.81449
1570.60    0.81556
1570.70    0.81591
1570.80    0.81620
1570.90    0.81713
1571.00    0.81806
1571.10    0.81866
1571.20    0.81894
1571.30    0.81933
1571.40    0.81998
1571.50    0.82053
1571.60    0.82127
1571.70    0.82187
1571.80    0.82272
1571.90    0.82332
1572.00    0.82346
1572.10    0.82391
1572.20    0.82497
1572.30    0.82600
1572.40    0.82627
1572.50    0.82659
1572.60    0.82672
1572.70    0.82764
1572.80    0.82783
1572.90    0.82796
1573.00    0.82796
1573.10    0.82910
1573.20    0.82988
1573.30    0.83001
1573.40    0.82975
1573.50    0.83001
1573.60    0.83066
1573.70    0.83107
1573.80    0.83075
1573.90    0.83062
1574.00    0.83105
1574.10    0.83159
1574.20    0.83155
1574.30    0.83139
1574.40    0.83099
1574.50    0.83103
1574.60    0.83124
1574.70    0.83119
1574.80    0.83092
1574.90    0.83116
1575.00    0.83112
1575.10    0.83058
1575.20    0.83035
1575.30    0.83025
1575.40    0.83039
1575.50    0.82974
1575.60    0.82942
1575.70    0.82934
1575.80    0.82944
1575.90    0.82882
1576.00    0.82818
1576.10    0.82749
1576.20    0.82766
1576.30    0.82767
1576.40    0.82699
1576.50    0.82620
1576.60    0.82587
1576.70    0.82579
1576.80    0.82516
1576.90    0.82422
1577.00    0.82350
1577.10    0.82317
1577.20    0.82245
1577.30    0.82194
1577.40    0.82127
1577.50    0.82058
1577.60    0.81999
1577.70    0.81880
1577.80    0.81796
1577.90    0.81745
1578.00    0.81658
1578.10    0.81553
1578.20    0.81389
1578.30    0.81295
1578.40    0.81218
1578.50    0.81045
1578.60    0.80855
1578.70    0.80720
1578.80    0.80592
1578.90    0.80418
1579.00    0.80223
1579.10    0.79994
1579.20    0.79786
1579.30    0.79608
1579.40    0.79306
1579.50    0.78995
1579.60    0.78704
1579.70    0.78407
1579.80    0.78056
1579.90    0.77714
1580.00    0.77317
1580.10    0.76924
1580.20    0.76482
1580.30    0.76009
1580.40    0.75554
1580.50    0.75125
1580.60    0.74598
1580.70    0.73977
1580.80    0.73337
1580.90    0.72773
1581.00    0.72143
1581.10    0.71348
1581.20    0.70617
1581.30    0.69865
1581.40    0.69164
1581.50    0.68287
1581.60    0.67369
1581.70    0.66460
1581.80    0.65626
1581.90    0.64633
1582.00    0.63619
1582.10    0.62631
1582.20    0.61562
1582.30    0.60607
1582.40    0.59430
1582.50    0.58333
1582.60    0.57226
1582.70    0.56101
1582.80    0.54812
1582.90    0.53592
1583.00    0.52467
1583.10    0.51165
1583.20    0.49945
1583.30    0.48528
1583.40    0.47325
1583.50    0.46033
1583.60    0.44832
1583.70    0.43474
1583.80    0.42317
1583.90    0.41103
1584.00    0.39802
1584.10    0.38576
1584.20    0.37366
1584.30    0.36135
1584.40    0.35036
1584.50    0.33892
1584.60    0.32602
1584.70    0.31501
1584.80    0.30332
1584.90    0.29361
1585.00    0.28099
1585.10    0.27098
1585.20    0.26104
1585.30    0.25163
1585.40    0.24031
1585.50    0.23233
1585.60    0.22345
1585.70    0.21434
1585.80    0.20609
1585.90    0.19720
1586.00    0.18961
1586.10    0.18278
1586.20    0.17588
1586.30    0.16710
1586.40    0.16096
1586.50    0.15433
1586.60    0.14821
1586.70    0.14138
1586.80    0.13563
1586.90    0.13030
1587.00    0.12461
1587.10    0.11905
1587.20    0.11461
1587.30    0.10990
1587.40    0.10563
1587.50    0.10137
1587.60    0.09680
1587.70    0.09303
1587.80    0.08945
1587.90    0.08598
1588.00    0.08176
1588.10    0.07885
1588.20    0.07543
1588.30    0.07267
1588.40    0.06976
1588.50    0.06669
1588.60    0.06408
1588.70    0.06148
1588.80    0.05912
1588.90    0.05673
1589.00    0.05456
1589.10    0.05264
1589.20    0.05060
1589.30    0.04844
1589.40    0.04672
1589.50    0.04504
1589.60    0.04331
1589.70    0.04165
1589.80    0.04005
1589.90    0.03859
1590.00    0.03724
1590.10    0.03607
1590.20    0.03443
1590.30    0.03323
1590.40    0.03194
1590.50    0.03083
1590.60    0.02961
1590.70    0.02867
1590.80    0.02772
1590.90    0.02677
1591.00    0.02568
1591.10    0.02487
1591.20    0.02409
1591.30    0.02330
1591.40    0.02250
1591.50    0.02166
1591.60    0.02099
1591.70    0.02024
1591.80    0.01972
1591.90    0.01902
1592.00    0.01838
1592.10    0.01772
1592.20    0.01720
1592.30    0.01660
1592.40    0.01611
1592.50    0.01562
1592.60    0.01510
1592.70    0.01467
1592.80    0.01419
1592.90    0.01377
1593.00    0.01335
1593.10    0.01301
1593.20    0.01257
1593.30    0.01216
1593.40    0.01184
1593.50    0.01151
1593.60    0.01110
1593.70    0.01086
1593.80    0.01048
1593.90    0.01022
1594.00    0.00993
1594.10    0.00960
1594.20    0.00929
1594.30    0.00916
1594.40    0.00892
1594.50    0.00858
1594.60    0.00838
1594.70    0.00820
1594.80    0.00793
1594.90    0.00772
1595.00    0.00751
1595.10    0.00736
1595.20    0.00717
1595.30    0.00691
1595.40    0.00671
1595.50    0.00658
1595.60    0.00643
1595.70    0.00624
1595.80    0.00608
1595.90    0.00592
1596.00    0.00580
1596.10    0.00564
1596.20    0.00554
1596.30    0.00534
1596.40    0.00528
1596.50    0.00513
1596.60    0.00501
1596.70    0.00488
1596.80    0.00480
1596.90    0.00463
1597.00    0.00455
1597.10    0.00447
1597.20    0.00435
1597.30    0.00424
1597.40    0.00419
1597.50    0.00405
1597.60    0.00394
1597.70    0.00386
1597.80    0.00378
1597.90    0.00372
1598.00    0.00363
1598.10    0.00353
1598.20    0.00350
1598.30    0.00344
1598.40    0.00332
1598.50    0.00329
1598.60    0.00318
1598.70    0.00317
1598.80    0.00301
1598.90    0.00294
1599.00    0.00293
1599.10    0.00284
1599.20    0.00277
1599.30    0.00273
1599.40    0.00276
1599.50    0.00260
1599.60    0.00260
1599.70    0.00259
1599.80    0.00250
1599.90    0.00248
1600.00    0.00245
1610.00    0.00000
1620.00    0.00000
