# Filter ID: ED191-1
# Gemini Filter Name: J_G1102
# 42mm diameter BK7 5.17mm thickness
# Central Wavelength: 1.250 um
# Note: Measurements taken at room temp and then calculated 
# to 70K using correlation measurements from Cold test witness
# created: 2012 Aug 16
# Author: Rodrigo Carrasco
# Lambda(nm) Transmission
1040.00    0.00000
1050.00    0.00000
1051.00    0.00001
1051.50    0.00004
1052.00    0.00002
1052.50    0.00000
1053.00    0.00002
1053.50    0.00008
1054.00    0.00006
1054.50    0.00004
1055.00    0.00001
1055.50    0.00012
1056.00    0.00000
1056.50    0.00001
1057.00    0.00002
1057.50    0.00000
1058.00    0.00012
1058.50    0.00013
1059.00    0.00001
1059.50    0.00005
1060.00    0.00004
1060.50    0.00002
1061.00    0.00012
1061.50    0.00002
1062.00    0.00007
1062.50    0.00005
1063.00    0.00008
1063.50    0.00009
1064.00    0.00004
1064.50    0.00000
1065.00    0.00004
1065.50    0.00007
1066.00    0.00008
1066.50    0.00004
1067.00    0.00003
1067.50    0.00007
1068.00    0.00010
1068.50    0.00003
1069.00    0.00010
1069.50    0.00001
1070.00    0.00000
1070.50    0.00006
1071.00    0.00004
1071.50    0.00001
1072.00    0.00004
1072.50    0.00005
1073.00    0.00004
1073.50    0.00003
1074.00    0.00005
1074.50    0.00003
1075.00    0.00000
1075.50    0.00000
1076.00    0.00004
1076.50    0.00003
1077.00    0.00003
1077.50    0.00008
1078.00    0.00002
1078.50    0.00005
1079.00    0.00001
1079.50    0.00003
1080.00    0.00006
1080.50    0.00010
1081.00    0.00011
1081.50    0.00005
1082.00    0.00007
1082.50    0.00007
1083.00    0.00003
1083.50    0.00003
1084.00    0.00005
1084.50    0.00002
1085.00    0.00001
1085.50    0.00005
1086.00    0.00002
1086.50    0.00004
1087.00    0.00000
1087.50    0.00007
1088.00    0.00003
1088.50    0.00007
1089.00    0.00004
1089.50    0.00005
1090.00    0.00000
1090.50    0.00004
1091.00    0.00002
1091.50    0.00005
1092.00    0.00003
1092.50    0.00006
1093.00    0.00005
1093.50    0.00001
1094.00    0.00003
1094.50    0.00002
1095.00    0.00001
1095.50    0.00004
1096.00    0.00002
1096.50    0.00003
1097.00    0.00011
1097.50    0.00008
1098.00    0.00000
1098.50    0.00002
1099.00    0.00000
1099.50    0.00006
1100.00    0.00001
1100.50    0.00004
1101.00    0.00000
1101.50    0.00007
1102.00    0.00005
1102.50    0.00003
1103.00    0.00002
1103.50    0.00006
1104.00    0.00008
1104.50    0.00003
1105.00    0.00002
1105.50    0.00005
1106.00    0.00002
1106.50    0.00007
1107.00    0.00006
1107.50    0.00006
1108.00    0.00008
1108.50    0.00004
1109.00    0.00009
1109.50    0.00000
1110.00    0.00003
1110.50    0.00012
1111.00    0.00007
1111.50    0.00003
1112.00    0.00014
1112.50    0.00007
1113.00    0.00003
1113.50    0.00005
1114.00    0.00007
1114.50    0.00011
1115.00    0.00002
1115.50    0.00002
1116.00    0.00001
1116.50    0.00007
1117.00    0.00005
1117.50    0.00014
1118.00    0.00009
1118.50    0.00009
1119.00    0.00017
1119.50    0.00007
1120.00    0.00013
1120.50    0.00012
1121.00    0.00003
1121.50    0.00010
1122.00    0.00013
1122.50    0.00011
1123.00    0.00010
1123.50    0.00016
1124.00    0.00011
1124.50    0.00017
1125.00    0.00021
1125.50    0.00025
1126.00    0.00024
1126.50    0.00028
1127.00    0.00026
1127.50    0.00030
1128.00    0.00035
1128.50    0.00029
1129.00    0.00036
1129.50    0.00044
1130.00    0.00038
1130.50    0.00054
1131.00    0.00066
1131.50    0.00056
1132.00    0.00065
1132.50    0.00072
1133.00    0.00074
1133.50    0.00079
1134.00    0.00090
1134.50    0.00097
1135.00    0.00113
1135.50    0.00116
1136.00    0.00117
1136.50    0.00138
1137.00    0.00140
1137.50    0.00154
1138.00    0.00166
1138.50    0.00189
1139.00    0.00191
1139.50    0.00208
1140.00    0.00230
1140.50    0.00250
1141.00    0.00265
1141.50    0.00296
1142.00    0.00304
1142.50    0.00336
1143.00    0.00353
1143.50    0.00387
1144.00    0.00416
1144.50    0.00447
1145.00    0.00491
1145.50    0.00550
1146.00    0.00574
1146.50    0.00623
1147.00    0.00681
1147.50    0.00738
1148.00    0.00815
1148.50    0.00889
1149.00    0.00978
1149.50    0.01080
1150.00    0.01181
1150.50    0.01300
1151.00    0.01440
1151.50    0.01601
1152.00    0.01780
1152.50    0.01972
1153.00    0.02193
1153.50    0.02441
1154.00    0.02734
1154.50    0.03071
1155.00    0.03469
1155.50    0.03891
1156.00    0.04368
1156.50    0.04903
1157.00    0.05527
1157.50    0.06322
1158.00    0.07219
1158.50    0.08172
1159.00    0.09215
1159.50    0.10411
1160.00    0.11772
1160.50    0.13399
1161.00    0.15272
1161.50    0.17306
1162.00    0.19398
1162.50    0.21674
1163.00    0.24180
1163.50    0.26915
1164.00    0.30184
1164.50    0.33319
1165.00    0.36563
1165.50    0.39645
1166.00    0.42941
1166.50    0.46257
1167.00    0.49622
1167.50    0.53059
1168.00    0.56205
1168.50    0.58976
1169.00    0.61659
1169.50    0.64354
1170.00    0.66952
1170.50    0.69487
1171.00    0.71708
1171.50    0.73659
1172.00    0.75434
1172.50    0.77102
1173.00    0.78749
1173.50    0.80257
1174.00    0.81655
1174.50    0.82792
1175.00    0.83790
1175.50    0.84677
1176.00    0.85446
1176.50    0.86145
1177.00    0.86709
1177.50    0.87124
1178.00    0.87426
1178.50    0.87601
1179.00    0.87703
1179.50    0.87704
1180.00    0.87635
1180.50    0.87489
1181.00    0.87323
1181.50    0.87069
1182.00    0.86760
1182.50    0.86478
1183.00    0.86113
1183.50    0.85772
1184.00    0.85447
1184.50    0.85149
1185.00    0.84821
1185.50    0.84514
1186.00    0.84228
1186.50    0.83967
1187.00    0.83764
1187.50    0.83611
1188.00    0.83474
1188.50    0.83330
1189.00    0.83262
1189.50    0.83220
1190.00    0.83215
1190.50    0.83251
1191.00    0.83308
1191.50    0.83396
1192.00    0.83519
1192.50    0.83677
1193.00    0.83848
1193.50    0.84028
1194.00    0.84229
1194.50    0.84423
1195.00    0.84645
1195.50    0.84861
1196.00    0.85114
1196.50    0.85348
1197.00    0.85583
1197.50    0.85767
1198.00    0.85949
1198.50    0.86162
1199.00    0.86280
1199.50    0.86486
1200.00    0.86611
1200.50    0.86759
1201.00    0.86905
1201.50    0.87001
1202.00    0.87042
1202.50    0.86980
1203.00    0.87097
1203.50    0.87101
1204.00    0.87068
1204.50    0.87044
1205.00    0.86999
1205.50    0.86932
1206.00    0.86842
1206.50    0.86766
1207.00    0.86681
1207.50    0.86581
1208.00    0.86438
1208.50    0.86314
1209.00    0.86212
1209.50    0.86103
1210.00    0.86000
1210.50    0.85886
1211.00    0.85766
1211.50    0.85641
1212.00    0.85562
1212.50    0.85481
1213.00    0.85429
1213.50    0.85361
1214.00    0.85332
1214.50    0.85295
1215.00    0.85270
1215.50    0.85241
1216.00    0.85269
1216.50    0.85315
1217.00    0.85361
1217.50    0.85408
1218.00    0.85472
1218.50    0.85531
1219.00    0.85589
1219.50    0.85674
1220.00    0.85765
1220.50    0.85880
1221.00    0.86002
1221.50    0.86113
1222.00    0.86189
1222.50    0.86302
1223.00    0.86411
1223.50    0.86520
1224.00    0.86642
1224.50    0.86737
1225.00    0.86875
1225.50    0.86950
1226.00    0.87038
1226.50    0.87114
1227.00    0.87172
1227.50    0.87236
1228.00    0.87298
1228.50    0.87356
1229.00    0.87384
1229.50    0.87402
1230.00    0.87445
1230.50    0.87418
1231.00    0.87445
1231.50    0.87440
1232.00    0.87438
1232.50    0.87443
1233.00    0.87449
1233.50    0.87455
1234.00    0.87452
1234.50    0.87430
1235.00    0.87419
1235.50    0.87418
1236.00    0.87426
1236.50    0.87450
1237.00    0.87475
1237.50    0.87494
1238.00    0.87560
1238.50    0.87590
1239.00    0.87647
1239.50    0.87707
1240.00    0.87812
1240.50    0.87896
1241.00    0.87988
1241.50    0.88108
1242.00    0.88205
1242.50    0.88332
1243.00    0.88454
1243.50    0.88617
1244.00    0.88771
1244.50    0.88899
1245.00    0.89048
1245.50    0.89217
1246.00    0.89373
1246.50    0.89524
1247.00    0.89631
1247.50    0.89768
1248.00    0.89918
1248.50    0.90039
1249.00    0.90158
1249.50    0.90280
1250.00    0.90360
1250.50    0.90430
1251.00    0.90512
1251.50    0.90585
1252.00    0.90628
1252.50    0.90620
1253.00    0.90626
1253.50    0.90660
1254.00    0.90670
1254.50    0.90634
1255.00    0.90584
1255.50    0.90540
1256.00    0.90468
1256.50    0.90407
1257.00    0.90347
1257.50    0.90267
1258.00    0.90212
1258.50    0.90131
1259.00    0.90002
1259.50    0.89917
1260.00    0.89829
1260.50    0.89739
1261.00    0.89673
1261.50    0.89619
1262.00    0.89518
1262.50    0.89453
1263.00    0.89376
1263.50    0.89342
1264.00    0.89271
1264.50    0.89255
1265.00    0.89227
1265.50    0.89206
1266.00    0.89205
1266.50    0.89204
1267.00    0.89205
1267.50    0.89195
1268.00    0.89192
1268.50    0.89179
1269.00    0.89214
1269.50    0.89236
1270.00    0.89274
1270.50    0.89290
1271.00    0.89322
1271.50    0.89341
1272.00    0.89377
1272.50    0.89408
1273.00    0.89432
1273.50    0.89452
1274.00    0.89499
1274.50    0.89527
1275.00    0.89540
1275.50    0.89529
1276.00    0.89535
1276.50    0.89538
1277.00    0.89554
1277.50    0.89596
1278.00    0.89593
1278.50    0.89585
1279.00    0.89564
1279.50    0.89533
1280.00    0.89520
1280.50    0.89525
1281.00    0.89540
1281.50    0.89536
1282.00    0.89555
1282.50    0.89560
1283.00    0.89587
1283.50    0.89581
1284.00    0.89589
1284.50    0.89646
1285.00    0.89709
1285.50    0.89749
1286.00    0.89801
1286.50    0.89872
1287.00    0.89939
1287.50    0.90017
1288.00    0.90084
1288.50    0.90197
1289.00    0.90278
1289.50    0.90387
1290.00    0.90475
1290.50    0.90602
1291.00    0.90716
1291.50    0.90831
1292.00    0.90936
1292.50    0.91065
1293.00    0.91158
1293.50    0.91282
1294.00    0.91389
1294.50    0.91486
1295.00    0.91561
1295.50    0.91658
1296.00    0.91751
1296.50    0.91795
1297.00    0.91872
1297.50    0.91945
1298.00    0.91977
1298.50    0.92018
1299.00    0.92040
1299.50    0.92053
1300.00    0.92029
1300.50    0.92012
1301.00    0.91983
1301.50    0.91931
1302.00    0.91873
1302.50    0.91845
1303.00    0.91779
1303.50    0.91671
1304.00    0.91565
1304.50    0.91446
1305.00    0.91345
1305.50    0.91228
1306.00    0.91097
1306.50    0.90914
1307.00    0.90715
1307.50    0.90532
1308.00    0.90323
1308.50    0.90110
1309.00    0.89875
1309.50    0.89599
1310.00    0.89299
1310.50    0.88949
1311.00    0.88626
1311.50    0.88256
1312.00    0.87815
1312.50    0.87323
1313.00    0.86788
1313.50    0.86194
1314.00    0.85545
1314.50    0.84836
1315.00    0.84060
1315.50    0.83160
1316.00    0.82103
1316.50    0.80993
1317.00    0.79853
1317.50    0.78610
1318.00    0.77220
1318.50    0.75612
1319.00    0.73838
1319.50    0.71987
1320.00    0.70100
1320.50    0.68188
1321.00    0.66051
1321.50    0.63751
1322.00    0.61257
1322.50    0.58639
1323.00    0.56135
1323.50    0.53612
1324.00    0.51104
1324.50    0.48418
1325.00    0.45518
1325.50    0.42734
1326.00    0.40120
1326.50    0.37637
1327.00    0.35225
1327.50    0.32827
1328.00    0.30428
1328.50    0.27942
1329.00    0.25808
1329.50    0.23881
1330.00    0.22056
1330.50    0.20330
1331.00    0.18639
1331.50    0.16982
1332.00    0.15480
1332.50    0.14190
1333.00    0.13039
1333.50    0.11921
1334.00    0.10892
1334.50    0.09911
1335.00    0.08974
1335.50    0.08205
1336.00    0.07516
1336.50    0.06885
1337.00    0.06289
1337.50    0.05724
1338.00    0.05206
1338.50    0.04742
1339.00    0.04351
1339.50    0.04001
1340.00    0.03673
1340.50    0.03353
1341.00    0.03064
1341.50    0.02801
1342.00    0.02561
1342.50    0.02367
1343.00    0.02169
1343.50    0.02033
1344.00    0.01841
1344.50    0.01689
1345.00    0.01553
1345.50    0.01448
1346.00    0.01328
1346.50    0.01231
1347.00    0.01139
1347.50    0.01047
1348.00    0.00972
1348.50    0.00897
1349.00    0.00832
1349.50    0.00767
1350.00    0.00708
1350.50    0.00655
1351.00    0.00607
1351.50    0.00582
1352.00    0.00534
1352.50    0.00493
1353.00    0.00457
1353.50    0.00422
1354.00    0.00393
1354.50    0.00367
1355.00    0.00349
1355.50    0.00313
1356.00    0.00305
1356.50    0.00274
1357.00    0.00254
1357.50    0.00237
1358.00    0.00224
1358.50    0.00215
1359.00    0.00194
1359.50    0.00176
1360.00    0.00164
1360.50    0.00167
1361.00    0.00146
1361.50    0.00147
1362.00    0.00129
1362.50    0.00123
1363.00    0.00113
1363.50    0.00117
1364.00    0.00098
1364.50    0.00087
1365.00    0.00090
1365.50    0.00082
1366.00    0.00072
1366.50    0.00070
1367.00    0.00060
1367.50    0.00060
1368.00    0.00074
1368.50    0.00069
1369.00    0.00049
1369.50    0.00053
1370.00    0.00047
1370.50    0.00043
1371.00    0.00038
1371.50    0.00049
1372.00    0.00033
1372.50    0.00033
1373.00    0.00033
1373.50    0.00029
1374.00    0.00033
1374.50    0.00030
1375.00    0.00024
1375.50    0.00032
1376.00    0.00018
1376.50    0.00026
1377.00    0.00023
1377.50    0.00015
1378.00    0.00023
1378.50    0.00020
1379.00    0.00021
1379.50    0.00015
1380.00    0.00010
1380.50    0.00024
1381.00    0.00012
1381.50    0.00002
1382.00    0.00006
1382.50    0.00020
1383.00    0.00014
1383.50    0.00010
1384.00    0.00013
1384.50    0.00014
1385.00    0.00011
1385.50    0.00007
1386.00    0.00004
1386.50    0.00015
1387.00    0.00009
1387.50    0.00010
1388.00    0.00010
1388.50    0.00006
1389.00    0.00005
1389.50    0.00017
1390.00    0.00012
1390.50    0.00003
1391.00    0.00002
1391.50    0.00016
1392.00    0.00005
1392.50    0.00007
1393.00    0.00003
1393.50    0.00000
1394.00    0.00002
1394.50    0.00006
1395.00    0.00003
1395.50    0.00001
1396.00    0.00002
1396.50    0.00010
1397.00    0.00007
1397.50    0.00004
1398.00    0.00003
1398.50    0.00006
1399.00    0.00010
1399.50    0.00005
1400.00    0.00004
1400.50    0.00003
1401.00    0.00007
1401.50    0.00003
1402.00    0.00012
1402.50    0.00004
1403.00    0.00010
1403.50    0.00004
1404.00    0.00002
1404.50    0.00004
1405.00    0.00002
1405.50    0.00000
1406.00    0.00002
1406.50    0.00016
1407.00    0.00001
1407.50    0.00004
1408.00    0.00003
1408.50    0.00003
1409.00    0.00004
1409.50    0.00004
1410.00    0.00002
1410.50    0.00008
1411.00    0.00003
1411.50    0.00003
1412.00    0.00001
1412.50    0.00004
1413.00    0.00009
1413.50    0.00001
1414.00    0.00001
1414.50    0.00001
1415.00    0.00004
1415.50    0.00001
1416.00    0.00006
1416.50    0.00004
1417.00    0.00001
1417.50    0.00002
1418.00    0.00002
1418.50    0.00002
1419.00    0.00000
1419.50    0.00003
1420.00    0.00004
1420.50    0.00003
1421.00    0.00001
1421.50    0.00003
1422.00    0.00000
1422.50    0.00002
1423.00    0.00002
1423.50    0.00004
1424.00    0.00001
1424.50    0.00003
1425.00    0.00000
1425.50    0.00000
1426.00    0.00003
1426.50    0.00005
1427.00    0.00008
1427.50    0.00004
1428.00    0.00007
1428.50    0.00005
1429.00    0.00008
1429.50    0.00002
1430.00    0.00005
1430.50    0.00008
1431.00    0.00004
1431.50    0.00005
1432.00    0.00003
1432.50    0.00012
1433.00    0.00001
1433.50    0.00008
1434.00    0.00001
1434.50    0.00006
1435.00    0.00007
1435.50    0.00000
1436.00    0.00000
1436.50    0.00005
1437.00    0.00004
1437.50    0.00005
1438.00    0.00000
1438.50    0.00009
1439.00    0.00009
1439.50    0.00003
1440.00    0.00006
1440.50    0.00005
1441.00    0.00001
1441.50    0.00001
1442.00    0.00000
1442.50    0.00003
1443.00    0.00002
1443.50    0.00000
1444.00    0.00002
1444.50    0.00002
1445.00    0.00010
1445.50    0.00002
1446.00    0.00003
1446.50    0.00004
1447.00    0.00006
1447.50    0.00001
1448.00    0.00006
1448.50    0.00008
1449.00    0.00012
1450.00    0.00000
1460.00    0.00000
