# Filter ID: ED196 1
# Gemini Filter Name: Kshort_G1105
# 42mm diameter Infrasil 6mm thickness
# Central Wavelength: 2.150 um
# Note: Measurements taken at room temp and then calculated to 
# 70K using correlation measurements from Cold test witness
# Created: 2012aug16
# Author: R. Carrasco
# Lambda(nm) Transmission
1810.00    0.00000
1820.00    0.00000
1830.00    0.00016
1830.25    0.00019
1830.50    0.00012
1830.75    0.00015
1831.00    0.00018
1831.25    0.00017
1831.50    0.00016
1831.75    0.00013
1832.00    0.00012
1832.25    0.00012
1832.50    0.00017
1832.75    0.00016
1833.00    0.00014
1833.25    0.00016
1833.50    0.00017
1833.75    0.00018
1834.00    0.00010
1834.25    0.00021
1834.50    0.00018
1834.75    0.00019
1835.00    0.00015
1835.25    0.00014
1835.50    0.00016
1835.75    0.00012
1836.00    0.00010
1836.25    0.00015
1836.50    0.00013
1836.75    0.00019
1837.00    0.00019
1837.25    0.00008
1837.50    0.00015
1837.75    0.00009
1838.00    0.00018
1838.25    0.00015
1838.50    0.00016
1838.75    0.00016
1839.00    0.00018
1839.25    0.00017
1839.50    0.00011
1839.75    0.00012
1840.00    0.00012
1840.25    0.00014
1840.50    0.00015
1840.75    0.00013
1841.00    0.00017
1841.25    0.00021
1841.50    0.00014
1841.75    0.00016
1842.00    0.00021
1842.25    0.00016
1842.50    0.00017
1842.75    0.00018
1843.00    0.00017
1843.25    0.00015
1843.50    0.00018
1843.75    0.00015
1844.00    0.00017
1844.25    0.00018
1844.50    0.00013
1844.75    0.00010
1845.00    0.00013
1845.25    0.00020
1845.50    0.00012
1845.75    0.00023
1846.00    0.00017
1846.25    0.00019
1846.50    0.00013
1846.75    0.00017
1847.00    0.00013
1847.25    0.00012
1847.50    0.00012
1847.75    0.00011
1848.00    0.00012
1848.25    0.00015
1848.50    0.00014
1848.75    0.00009
1849.00    0.00018
1849.25    0.00014
1849.50    0.00017
1849.75    0.00020
1850.00    0.00016
1850.25    0.00020
1850.50    0.00013
1850.75    0.00012
1851.00    0.00020
1851.25    0.00017
1851.50    0.00019
1851.75    0.00017
1852.00    0.00017
1852.25    0.00016
1852.50    0.00010
1852.75    0.00014
1853.00    0.00012
1853.25    0.00012
1853.50    0.00015
1853.75    0.00014
1854.00    0.00015
1854.25    0.00013
1854.50    0.00013
1854.75    0.00017
1855.00    0.00019
1855.25    0.00011
1855.50    0.00016
1855.75    0.00016
1856.00    0.00013
1856.25    0.00010
1856.50    0.00014
1856.75    0.00021
1857.00    0.00020
1857.25    0.00008
1857.50    0.00012
1857.75    0.00014
1858.00    0.00017
1858.25    0.00020
1858.50    0.00013
1858.75    0.00014
1859.00    0.00011
1859.25    0.00008
1859.50    0.00003
1859.75    0.00015
1860.00    0.00013
1860.25    0.00011
1860.50    0.00017
1860.75    0.00011
1861.00    0.00012
1861.25    0.00013
1861.50    0.00015
1861.75    0.00016
1862.00    0.00019
1862.25    0.00014
1862.50    0.00017
1862.75    0.00012
1863.00    0.00016
1863.25    0.00015
1863.50    0.00016
1863.75    0.00019
1864.00    0.00016
1864.25    0.00011
1864.50    0.00013
1864.75    0.00010
1865.00    0.00012
1865.25    0.00021
1865.50    0.00014
1865.75    0.00015
1866.00    0.00018
1866.25    0.00015
1866.50    0.00007
1866.75    0.00010
1867.00    0.00015
1867.25    0.00014
1867.50    0.00016
1867.75    0.00010
1868.00    0.00020
1868.25    0.00017
1868.50    0.00013
1868.75    0.00016
1869.00    0.00013
1869.25    0.00017
1869.50    0.00014
1869.75    0.00015
1870.00    0.00008
1870.25    0.00012
1870.50    0.00013
1870.75    0.00014
1871.00    0.00018
1871.25    0.00006
1871.50    0.00014
1871.75    0.00010
1872.00    0.00016
1872.25    0.00025
1872.50    0.00010
1872.75    0.00017
1873.00    0.00011
1873.25    0.00017
1873.50    0.00013
1873.75    0.00016
1874.00    0.00016
1874.25    0.00013
1874.50    0.00016
1874.75    0.00013
1875.00    0.00011
1875.25    0.00017
1875.50    0.00020
1875.75    0.00018
1876.00    0.00018
1876.25    0.00025
1876.50    0.00015
1876.75    0.00013
1877.00    0.00015
1877.25    0.00015
1877.50    0.00017
1877.75    0.00016
1878.00    0.00017
1878.25    0.00016
1878.50    0.00014
1878.75    0.00011
1879.00    0.00016
1879.25    0.00019
1879.50    0.00014
1879.75    0.00017
1880.00    0.00015
1880.25    0.00012
1880.50    0.00012
1880.75    0.00014
1881.00    0.00014
1881.25    0.00010
1881.50    0.00017
1881.75    0.00017
1882.00    0.00017
1882.25    0.00020
1882.50    0.00015
1882.75    0.00017
1883.00    0.00016
1883.25    0.00018
1883.50    0.00009
1883.75    0.00014
1884.00    0.00017
1884.25    0.00024
1884.50    0.00014
1884.75    0.00014
1885.00    0.00020
1885.25    0.00017
1885.50    0.00018
1885.75    0.00014
1886.00    0.00017
1886.25    0.00014
1886.50    0.00012
1886.75    0.00018
1887.00    0.00012
1887.25    0.00019
1887.50    0.00017
1887.75    0.00022
1888.00    0.00015
1888.25    0.00018
1888.50    0.00014
1888.75    0.00017
1889.00    0.00023
1889.25    0.00016
1889.50    0.00019
1889.75    0.00014
1890.00    0.00011
1890.25    0.00012
1890.50    0.00013
1890.75    0.00019
1891.00    0.00015
1891.25    0.00021
1891.50    0.00021
1891.75    0.00018
1892.00    0.00017
1892.25    0.00011
1892.50    0.00024
1892.75    0.00018
1893.00    0.00020
1893.25    0.00019
1893.50    0.00023
1893.75    0.00017
1894.00    0.00014
1894.25    0.00016
1894.50    0.00022
1894.75    0.00018
1895.00    0.00018
1895.25    0.00018
1895.50    0.00016
1895.75    0.00019
1896.00    0.00022
1896.25    0.00021
1896.50    0.00019
1896.75    0.00014
1897.00    0.00015
1897.25    0.00011
1897.50    0.00016
1897.75    0.00025
1898.00    0.00025
1898.25    0.00019
1898.50    0.00018
1898.75    0.00019
1899.00    0.00017
1899.25    0.00023
1899.50    0.00016
1899.75    0.00020
1900.00    0.00020
1900.25    0.00025
1900.50    0.00015
1900.75    0.00017
1901.00    0.00011
1901.25    0.00019
1901.50    0.00020
1901.75    0.00022
1902.00    0.00020
1902.25    0.00016
1902.50    0.00023
1902.75    0.00017
1903.00    0.00023
1903.25    0.00024
1903.50    0.00017
1903.75    0.00019
1904.00    0.00024
1904.25    0.00022
1904.50    0.00017
1904.75    0.00020
1905.00    0.00022
1905.25    0.00022
1905.50    0.00019
1905.75    0.00015
1906.00    0.00015
1906.25    0.00023
1906.50    0.00023
1906.75    0.00018
1907.00    0.00021
1907.25    0.00024
1907.50    0.00020
1907.75    0.00025
1908.00    0.00021
1908.25    0.00019
1908.50    0.00023
1908.75    0.00021
1909.00    0.00025
1909.25    0.00022
1909.50    0.00016
1909.75    0.00021
1910.00    0.00023
1910.25    0.00022
1910.50    0.00022
1910.75    0.00017
1911.00    0.00018
1911.25    0.00026
1911.50    0.00022
1911.75    0.00023
1912.00    0.00028
1912.25    0.00023
1912.50    0.00021
1912.75    0.00020
1913.00    0.00019
1913.25    0.00027
1913.50    0.00015
1913.75    0.00023
1914.00    0.00021
1914.25    0.00023
1914.50    0.00027
1914.75    0.00024
1915.00    0.00021
1915.25    0.00021
1915.50    0.00027
1915.75    0.00032
1916.00    0.00020
1916.25    0.00026
1916.50    0.00024
1916.75    0.00025
1917.00    0.00022
1917.25    0.00027
1917.50    0.00027
1917.75    0.00032
1918.00    0.00029
1918.25    0.00029
1918.50    0.00026
1918.75    0.00028
1919.00    0.00029
1919.25    0.00027
1919.50    0.00033
1919.75    0.00028
1920.00    0.00023
1920.25    0.00026
1920.50    0.00029
1920.75    0.00029
1921.00    0.00021
1921.25    0.00028
1921.50    0.00031
1921.75    0.00036
1922.00    0.00029
1922.25    0.00031
1922.50    0.00032
1922.75    0.00028
1923.00    0.00030
1923.25    0.00029
1923.50    0.00032
1923.75    0.00038
1924.00    0.00033
1924.25    0.00028
1924.50    0.00033
1924.75    0.00034
1925.00    0.00035
1925.25    0.00035
1925.50    0.00036
1925.75    0.00038
1926.00    0.00039
1926.25    0.00042
1926.50    0.00046
1926.75    0.00039
1927.00    0.00041
1927.25    0.00038
1927.50    0.00045
1927.75    0.00040
1928.00    0.00040
1928.25    0.00048
1928.50    0.00047
1928.75    0.00042
1929.00    0.00037
1929.25    0.00045
1929.50    0.00048
1929.75    0.00052
1930.00    0.00045
1930.25    0.00045
1930.50    0.00047
1930.75    0.00053
1931.00    0.00055
1931.25    0.00051
1931.50    0.00056
1931.75    0.00052
1932.00    0.00065
1932.25    0.00053
1932.50    0.00058
1932.75    0.00065
1933.00    0.00060
1933.25    0.00058
1933.50    0.00061
1933.75    0.00063
1934.00    0.00074
1934.25    0.00066
1934.50    0.00073
1934.75    0.00076
1935.00    0.00073
1935.25    0.00074
1935.50    0.00074
1935.75    0.00075
1936.00    0.00080
1936.25    0.00077
1936.50    0.00087
1936.75    0.00086
1937.00    0.00088
1937.25    0.00087
1937.50    0.00091
1937.75    0.00092
1938.00    0.00082
1938.25    0.00095
1938.50    0.00096
1938.75    0.00096
1939.00    0.00096
1939.25    0.00103
1939.50    0.00105
1939.75    0.00110
1940.00    0.00109
1940.25    0.00109
1940.50    0.00114
1940.75    0.00115
1941.00    0.00120
1941.25    0.00124
1941.50    0.00127
1941.75    0.00138
1942.00    0.00125
1942.25    0.00138
1942.50    0.00139
1942.75    0.00137
1943.00    0.00144
1943.25    0.00144
1943.50    0.00154
1943.75    0.00154
1944.00    0.00158
1944.25    0.00157
1944.50    0.00169
1944.75    0.00172
1945.00    0.00173
1945.25    0.00178
1945.50    0.00177
1945.75    0.00189
1946.00    0.00186
1946.25    0.00192
1946.50    0.00207
1946.75    0.00202
1947.00    0.00207
1947.25    0.00205
1947.50    0.00217
1947.75    0.00223
1948.00    0.00225
1948.25    0.00230
1948.50    0.00236
1948.75    0.00244
1949.00    0.00250
1949.25    0.00252
1949.50    0.00259
1949.75    0.00271
1950.00    0.00271
1950.25    0.00283
1950.50    0.00292
1950.75    0.00289
1951.00    0.00297
1951.25    0.00302
1951.50    0.00311
1951.75    0.00315
1952.00    0.00326
1952.25    0.00336
1952.50    0.00343
1952.75    0.00350
1953.00    0.00357
1953.25    0.00367
1953.50    0.00383
1953.75    0.00384
1954.00    0.00396
1954.25    0.00403
1954.50    0.00414
1954.75    0.00423
1955.00    0.00433
1955.25    0.00444
1955.50    0.00456
1955.75    0.00473
1956.00    0.00481
1956.25    0.00491
1956.50    0.00507
1956.75    0.00517
1957.00    0.00534
1957.25    0.00547
1957.50    0.00559
1957.75    0.00576
1958.00    0.00584
1958.25    0.00598
1958.50    0.00621
1958.75    0.00635
1959.00    0.00656
1959.25    0.00672
1959.50    0.00695
1959.75    0.00711
1960.00    0.00727
1960.25    0.00750
1960.50    0.00773
1960.75    0.00802
1961.00    0.00814
1961.25    0.00841
1961.50    0.00861
1961.75    0.00888
1962.00    0.00917
1962.25    0.00947
1962.50    0.00975
1962.75    0.01003
1963.00    0.01032
1963.25    0.01055
1963.50    0.01100
1963.75    0.01130
1964.00    0.01164
1964.25    0.01205
1964.50    0.01237
1964.75    0.01281
1965.00    0.01315
1965.25    0.01358
1965.50    0.01406
1965.75    0.01445
1966.00    0.01505
1966.25    0.01543
1966.50    0.01596
1966.75    0.01648
1967.00    0.01704
1967.25    0.01765
1967.50    0.01823
1967.75    0.01884
1968.00    0.01946
1968.25    0.02013
1968.50    0.02085
1968.75    0.02146
1969.00    0.02240
1969.25    0.02289
1969.50    0.02393
1969.75    0.02463
1970.00    0.02549
1970.25    0.02661
1970.50    0.02746
1970.75    0.02847
1971.00    0.02945
1971.25    0.03055
1971.50    0.03171
1971.75    0.03273
1972.00    0.03418
1972.25    0.03538
1972.50    0.03674
1972.75    0.03796
1973.00    0.03939
1973.25    0.04102
1973.50    0.04228
1973.75    0.04418
1974.00    0.04567
1974.25    0.04754
1974.50    0.04922
1974.75    0.05098
1975.00    0.05328
1975.25    0.05489
1975.50    0.05736
1975.75    0.05927
1976.00    0.06179
1976.25    0.06395
1976.50    0.06611
1976.75    0.06933
1977.00    0.07169
1977.25    0.07473
1977.50    0.07736
1977.75    0.08044
1978.00    0.08351
1978.25    0.08641
1978.50    0.09023
1978.75    0.09326
1979.00    0.09734
1979.25    0.10084
1979.50    0.10461
1979.75    0.10910
1980.00    0.11249
1980.25    0.11724
1980.50    0.12114
1980.75    0.12643
1981.00    0.13095
1981.25    0.13544
1981.50    0.14132
1981.75    0.14552
1982.00    0.15133
1982.25    0.15656
1982.50    0.16278
1982.75    0.16821
1983.00    0.17387
1983.25    0.18075
1983.50    0.18655
1983.75    0.19379
1984.00    0.20024
1984.25    0.20699
1984.50    0.21484
1984.75    0.22131
1985.00    0.22907
1985.25    0.23612
1985.50    0.24408
1985.75    0.25301
1986.00    0.26048
1986.25    0.26928
1986.50    0.27677
1986.75    0.28620
1987.00    0.29422
1987.25    0.30317
1987.50    0.31306
1987.75    0.32129
1988.00    0.33201
1988.25    0.33955
1988.50    0.35010
1988.75    0.35909
1989.00    0.36875
1989.25    0.37937
1989.50    0.38790
1989.75    0.39977
1990.00    0.40881
1990.25    0.42002
1990.50    0.42849
1990.75    0.43859
1991.00    0.45042
1991.25    0.45958
1991.50    0.47129
1991.75    0.48084
1992.00    0.49211
1992.25    0.50167
1992.50    0.51118
1992.75    0.52361
1993.00    0.53284
1993.25    0.54439
1993.50    0.55407
1993.75    0.56399
1994.00    0.57502
1994.25    0.58479
1994.50    0.59633
1994.75    0.60556
1995.00    0.61671
1995.25    0.62620
1995.50    0.63553
1995.75    0.64673
1996.00    0.65525
1996.25    0.66666
1996.50    0.67537
1996.75    0.68529
1997.00    0.69409
1997.25    0.70266
1997.50    0.71337
1997.75    0.72107
1998.00    0.73033
1998.25    0.73990
1998.50    0.74757
1998.75    0.75632
1999.00    0.76328
1999.25    0.77220
1999.50    0.78175
1999.75    0.78692
2000.00    0.79467
2000.25    0.80118
2000.50    0.80978
2000.75    0.81541
2001.00    0.82309
2001.25    0.82920
2001.50    0.83573
2001.75    0.84172
2002.00    0.84734
2002.25    0.85445
2002.50    0.85944
2002.75    0.86537
2003.00    0.86979
2003.25    0.87505
2003.50    0.88061
2003.75    0.88433
2004.00    0.88962
2004.25    0.89318
2004.50    0.89801
2004.75    0.90115
2005.00    0.90497
2005.25    0.90895
2005.50    0.91180
2005.75    0.91558
2006.00    0.91831
2006.25    0.92112
2006.50    0.92349
2006.75    0.92588
2007.00    0.92864
2007.25    0.93038
2007.50    0.93282
2007.75    0.93454
2008.00    0.93661
2008.25    0.93823
2008.50    0.93962
2008.75    0.94112
2009.00    0.94231
2009.25    0.94363
2009.50    0.94454
2009.75    0.94542
2010.00    0.94642
2010.25    0.94700
2010.50    0.94783
2010.75    0.94842
2011.00    0.94909
2011.25    0.94961
2011.50    0.94982
2011.75    0.95022
2012.00    0.95068
2012.25    0.95094
2012.50    0.95095
2012.75    0.95095
2013.00    0.95129
2013.25    0.95090
2013.50    0.95121
2013.75    0.95117
2014.00    0.95124
2014.25    0.95141
2014.50    0.95121
2014.75    0.95116
2015.00    0.95107
2015.25    0.95093
2015.50    0.95086
2015.75    0.95056
2016.00    0.95068
2016.25    0.95048
2016.50    0.95018
2016.75    0.95031
2017.00    0.94999
2017.25    0.95021
2017.50    0.95007
2017.75    0.95005
2018.00    0.95009
2018.25    0.94997
2018.50    0.95011
2018.75    0.94973
2019.00    0.94997
2019.25    0.95006
2019.50    0.95003
2019.75    0.95017
2020.00    0.95032
2020.25    0.95051
2020.50    0.95068
2020.75    0.95104
2021.00    0.95113
2021.25    0.95147
2021.50    0.95136
2021.75    0.95161
2022.00    0.95186
2022.25    0.95214
2022.50    0.95266
2022.75    0.95298
2023.00    0.95337
2023.25    0.95377
2023.50    0.95395
2023.75    0.95425
2024.00    0.95471
2024.25    0.95532
2024.50    0.95563
2024.75    0.95610
2025.00    0.95644
2025.25    0.95719
2025.50    0.95729
2025.75    0.95821
2026.00    0.95884
2026.25    0.95922
2026.50    0.95988
2026.75    0.96026
2027.00    0.96080
2027.25    0.96144
2027.50    0.96159
2027.75    0.96249
2028.00    0.96300
2028.25    0.96364
2028.50    0.96434
2028.75    0.96482
2029.00    0.96549
2029.25    0.96591
2029.50    0.96659
2029.75    0.96695
2030.00    0.96757
2030.25    0.96807
2030.50    0.96869
2030.75    0.96936
2031.00    0.96971
2031.25    0.97023
2031.50    0.97099
2031.75    0.97135
2032.00    0.97218
2032.25    0.97254
2032.50    0.97321
2032.75    0.97357
2033.00    0.97390
2033.25    0.97443
2033.50    0.97472
2033.75    0.97515
2034.00    0.97539
2034.25    0.97610
2034.50    0.97647
2034.75    0.97689
2035.00    0.97721
2035.25    0.97764
2035.50    0.97798
2035.75    0.97840
2036.00    0.97878
2036.25    0.97893
2036.50    0.97905
2036.75    0.97942
2037.00    0.97960
2037.25    0.98007
2037.50    0.98008
2037.75    0.98055
2038.00    0.98058
2038.25    0.98088
2038.50    0.98110
2038.75    0.98129
2039.00    0.98158
2039.25    0.98161
2039.50    0.98161
2039.75    0.98169
2040.00    0.98180
2040.25    0.98210
2040.50    0.98206
2040.75    0.98215
2041.00    0.98233
2041.25    0.98240
2041.50    0.98262
2041.75    0.98247
2042.00    0.98258
2042.25    0.98251
2042.50    0.98241
2042.75    0.98240
2043.00    0.98258
2043.25    0.98259
2043.50    0.98252
2043.75    0.98242
2044.00    0.98257
2044.25    0.98259
2044.50    0.98248
2044.75    0.98230
2045.00    0.98229
2045.25    0.98215
2045.50    0.98196
2045.75    0.98201
2046.00    0.98201
2046.25    0.98187
2046.50    0.98205
2046.75    0.98198
2047.00    0.98192
2047.25    0.98193
2047.50    0.98195
2047.75    0.98173
2048.00    0.98164
2048.25    0.98156
2048.50    0.98147
2048.75    0.98148
2049.00    0.98131
2049.25    0.98117
2049.50    0.98126
2049.75    0.98115
2050.00    0.98122
2050.25    0.98110
2050.50    0.98100
2050.75    0.98102
2051.00    0.98099
2051.25    0.98096
2051.50    0.98089
2051.75    0.98106
2052.00    0.98088
2052.25    0.98092
2052.50    0.98082
2052.75    0.98083
2053.00    0.98057
2053.25    0.98062
2053.50    0.98061
2053.75    0.98062
2054.00    0.98061
2054.25    0.98055
2054.50    0.98042
2054.75    0.98042
2055.00    0.98052
2055.25    0.98042
2055.50    0.98056
2055.75    0.98044
2056.00    0.98053
2056.25    0.98060
2056.50    0.98063
2056.75    0.98072
2057.00    0.98070
2057.25    0.98057
2057.50    0.98072
2057.75    0.98059
2058.00    0.98058
2058.25    0.98071
2058.50    0.98070
2058.75    0.98091
2059.00    0.98100
2059.25    0.98099
2059.50    0.98124
2059.75    0.98109
2060.00    0.98116
2060.25    0.98139
2060.50    0.98139
2060.75    0.98118
2061.00    0.98159
2061.25    0.98143
2061.50    0.98157
2061.75    0.98181
2062.00    0.98171
2062.25    0.98202
2062.50    0.98196
2062.75    0.98211
2063.00    0.98211
2063.25    0.98222
2063.50    0.98224
2063.75    0.98216
2064.00    0.98233
2064.25    0.98251
2064.50    0.98256
2064.75    0.98285
2065.00    0.98300
2065.25    0.98291
2065.50    0.98288
2065.75    0.98292
2066.00    0.98295
2066.25    0.98300
2066.50    0.98316
2066.75    0.98326
2067.00    0.98342
2067.25    0.98347
2067.50    0.98349
2067.75    0.98364
2068.00    0.98379
2068.25    0.98371
2068.50    0.98393
2068.75    0.98392
2069.00    0.98411
2069.25    0.98395
2069.50    0.98392
2069.75    0.98430
2070.00    0.98424
2070.25    0.98426
2070.50    0.98433
2070.75    0.98429
2071.00    0.98440
2071.25    0.98450
2071.50    0.98457
2071.75    0.98444
2072.00    0.98464
2072.25    0.98460
2072.50    0.98469
2072.75    0.98456
2073.00    0.98468
2073.25    0.98469
2073.50    0.98470
2073.75    0.98472
2074.00    0.98473
2074.25    0.98473
2074.50    0.98483
2074.75    0.98480
2075.00    0.98472
2075.25    0.98475
2075.50    0.98470
2075.75    0.98475
2076.00    0.98465
2076.25    0.98454
2076.50    0.98469
2076.75    0.98454
2077.00    0.98468
2077.25    0.98464
2077.50    0.98448
2077.75    0.98473
2078.00    0.98451
2078.25    0.98419
2078.50    0.98432
2078.75    0.98430
2079.00    0.98406
2079.25    0.98418
2079.50    0.98407
2079.75    0.98417
2080.00    0.98406
2080.25    0.98405
2080.50    0.98383
2080.75    0.98374
2081.00    0.98354
2081.25    0.98334
2081.50    0.98322
2081.75    0.98331
2082.00    0.98326
2082.25    0.98308
2082.50    0.98299
2082.75    0.98293
2083.00    0.98288
2083.25    0.98281
2083.50    0.98256
2083.75    0.98230
2084.00    0.98236
2084.25    0.98212
2084.50    0.98201
2084.75    0.98186
2085.00    0.98186
2085.25    0.98182
2085.50    0.98161
2085.75    0.98132
2086.00    0.98120
2086.25    0.98102
2086.50    0.98084
2086.75    0.98094
2087.00    0.98085
2087.25    0.98047
2087.50    0.98050
2087.75    0.98031
2088.00    0.98022
2088.25    0.98016
2088.50    0.97985
2088.75    0.97986
2089.00    0.97972
2089.25    0.97942
2089.50    0.97924
2089.75    0.97901
2090.00    0.97894
2090.25    0.97866
2090.50    0.97862
2090.75    0.97846
2091.00    0.97841
2091.25    0.97834
2091.50    0.97819
2091.75    0.97804
2092.00    0.97818
2092.25    0.97813
2092.50    0.97773
2092.75    0.97757
2093.00    0.97746
2093.25    0.97714
2093.50    0.97724
2093.75    0.97692
2094.00    0.97709
2094.25    0.97698
2094.50    0.97684
2094.75    0.97661
2095.00    0.97685
2095.25    0.97663
2095.50    0.97656
2095.75    0.97649
2096.00    0.97612
2096.25    0.97615
2096.50    0.97597
2096.75    0.97610
2097.00    0.97597
2097.25    0.97580
2097.50    0.97591
2097.75    0.97582
2098.00    0.97560
2098.25    0.97554
2098.50    0.97563
2098.75    0.97543
2099.00    0.97543
2099.25    0.97532
2099.50    0.97531
2099.75    0.97521
2100.00    0.97514
2100.25    0.97528
2100.50    0.97543
2100.75    0.97535
2101.00    0.97521
2101.25    0.97511
2101.50    0.97536
2101.75    0.97515
2102.00    0.97533
2102.25    0.97513
2102.50    0.97517
2102.75    0.97541
2103.00    0.97539
2103.25    0.97542
2103.50    0.97546
2103.75    0.97566
2104.00    0.97546
2104.25    0.97558
2104.50    0.97565
2104.75    0.97558
2105.00    0.97543
2105.25    0.97566
2105.50    0.97567
2105.75    0.97584
2106.00    0.97563
2106.25    0.97588
2106.50    0.97588
2106.75    0.97615
2107.00    0.97619
2107.25    0.97622
2107.50    0.97627
2107.75    0.97631
2108.00    0.97623
2108.25    0.97629
2108.50    0.97686
2108.75    0.97659
2109.00    0.97695
2109.25    0.97699
2109.50    0.97710
2109.75    0.97700
2110.00    0.97707
2110.25    0.97745
2110.50    0.97748
2110.75    0.97734
2111.00    0.97780
2111.25    0.97773
2111.50    0.97775
2111.75    0.97785
2112.00    0.97819
2112.25    0.97805
2112.50    0.97814
2112.75    0.97846
2113.00    0.97859
2113.25    0.97846
2113.50    0.97864
2113.75    0.97879
2114.00    0.97881
2114.25    0.97906
2114.50    0.97888
2114.75    0.97920
2115.00    0.97960
2115.25    0.97966
2115.50    0.97959
2115.75    0.97985
2116.00    0.97969
2116.25    0.97992
2116.50    0.97990
2116.75    0.98011
2117.00    0.98035
2117.25    0.98018
2117.50    0.98052
2117.75    0.98036
2118.00    0.98057
2118.25    0.98085
2118.50    0.98076
2118.75    0.98092
2119.00    0.98114
2119.25    0.98108
2119.50    0.98105
2119.75    0.98106
2120.00    0.98109
2120.25    0.98108
2120.50    0.98150
2120.75    0.98136
2121.00    0.98160
2121.25    0.98174
2121.50    0.98177
2121.75    0.98166
2122.00    0.98177
2122.25    0.98170
2122.50    0.98190
2122.75    0.98178
2123.00    0.98201
2123.25    0.98220
2123.50    0.98233
2123.75    0.98227
2124.00    0.98254
2124.25    0.98253
2124.50    0.98235
2124.75    0.98234
2125.00    0.98237
2125.25    0.98244
2125.50    0.98224
2125.75    0.98230
2126.00    0.98257
2126.25    0.98251
2126.50    0.98261
2126.75    0.98253
2127.00    0.98257
2127.25    0.98276
2127.50    0.98252
2127.75    0.98260
2128.00    0.98266
2128.25    0.98246
2128.50    0.98268
2128.75    0.98290
2129.00    0.98305
2129.25    0.98298
2129.50    0.98303
2129.75    0.98293
2130.00    0.98301
2130.25    0.98268
2130.50    0.98274
2130.75    0.98266
2131.00    0.98273
2131.25    0.98284
2131.50    0.98274
2131.75    0.98270
2132.00    0.98291
2132.25    0.98294
2132.50    0.98288
2132.75    0.98295
2133.00    0.98309
2133.25    0.98303
2133.50    0.98305
2133.75    0.98286
2134.00    0.98318
2134.25    0.98289
2134.50    0.98305
2134.75    0.98288
2135.00    0.98291
2135.25    0.98309
2135.50    0.98296
2135.75    0.98312
2136.00    0.98290
2136.25    0.98303
2136.50    0.98307
2136.75    0.98325
2137.00    0.98315
2137.25    0.98326
2137.50    0.98330
2137.75    0.98320
2138.00    0.98324
2138.25    0.98311
2138.50    0.98327
2138.75    0.98329
2139.00    0.98333
2139.25    0.98347
2139.50    0.98349
2139.75    0.98327
2140.00    0.98352
2140.25    0.98338
2140.50    0.98354
2140.75    0.98370
2141.00    0.98356
2141.25    0.98382
2141.50    0.98370
2141.75    0.98351
2142.00    0.98359
2142.25    0.98371
2142.50    0.98370
2142.75    0.98352
2143.00    0.98364
2143.25    0.98386
2143.50    0.98379
2143.75    0.98366
2144.00    0.98385
2144.25    0.98371
2144.50    0.98382
2144.75    0.98402
2145.00    0.98369
2145.25    0.98381
2145.50    0.98412
2145.75    0.98403
2146.00    0.98370
2146.25    0.98417
2146.50    0.98383
2146.75    0.98405
2147.00    0.98404
2147.25    0.98413
2147.50    0.98423
2147.75    0.98421
2148.00    0.98394
2148.25    0.98409
2148.50    0.98398
2148.75    0.98409
2149.00    0.98429
2149.25    0.98414
2149.50    0.98424
2149.75    0.98437
2150.00    0.98410
2150.25    0.98418
2150.50    0.98405
2150.75    0.98421
2151.00    0.98417
2151.25    0.98399
2151.50    0.98420
2151.75    0.98410
2152.00    0.98406
2152.25    0.98404
2152.50    0.98392
2152.75    0.98399
2153.00    0.98403
2153.25    0.98393
2153.50    0.98400
2153.75    0.98380
2154.00    0.98370
2154.25    0.98368
2154.50    0.98378
2154.75    0.98357
2155.00    0.98349
2155.25    0.98364
2155.50    0.98349
2155.75    0.98340
2156.00    0.98341
2156.25    0.98323
2156.50    0.98323
2156.75    0.98344
2157.00    0.98315
2157.25    0.98301
2157.50    0.98286
2157.75    0.98268
2158.00    0.98270
2158.25    0.98259
2158.50    0.98257
2158.75    0.98240
2159.00    0.98224
2159.25    0.98240
2159.50    0.98249
2159.75    0.98235
2160.00    0.98210
2160.25    0.98181
2160.50    0.98165
2160.75    0.98159
2161.00    0.98168
2161.25    0.98148
2161.50    0.98147
2161.75    0.98130
2162.00    0.98113
2162.25    0.98116
2162.50    0.98098
2162.75    0.98084
2163.00    0.98069
2163.25    0.98055
2163.50    0.98039
2163.75    0.98033
2164.00    0.98024
2164.25    0.98014
2164.50    0.98004
2164.75    0.98010
2165.00    0.97988
2165.25    0.97996
2165.50    0.97962
2165.75    0.97955
2166.00    0.97925
2166.25    0.97928
2166.50    0.97929
2166.75    0.97924
2167.00    0.97904
2167.25    0.97889
2167.50    0.97901
2167.75    0.97892
2168.00    0.97872
2168.25    0.97879
2168.50    0.97863
2168.75    0.97851
2169.00    0.97846
2169.25    0.97839
2169.50    0.97798
2169.75    0.97797
2170.00    0.97786
2170.25    0.97793
2170.50    0.97775
2170.75    0.97757
2171.00    0.97756
2171.25    0.97741
2171.50    0.97744
2171.75    0.97757
2172.00    0.97713
2172.25    0.97717
2172.50    0.97716
2172.75    0.97721
2173.00    0.97709
2173.25    0.97700
2173.50    0.97699
2173.75    0.97701
2174.00    0.97690
2174.25    0.97704
2174.50    0.97672
2174.75    0.97666
2175.00    0.97647
2175.25    0.97660
2175.50    0.97677
2175.75    0.97660
2176.00    0.97664
2176.25    0.97636
2176.50    0.97663
2176.75    0.97656
2177.00    0.97660
2177.25    0.97661
2177.50    0.97650
2177.75    0.97648
2178.00    0.97646
2178.25    0.97648
2178.50    0.97630
2178.75    0.97617
2179.00    0.97626
2179.25    0.97638
2179.50    0.97636
2179.75    0.97628
2180.00    0.97647
2180.25    0.97624
2180.50    0.97608
2180.75    0.97612
2181.00    0.97593
2181.25    0.97610
2181.50    0.97605
2181.75    0.97614
2182.00    0.97627
2182.25    0.97620
2182.50    0.97618
2182.75    0.97613
2183.00    0.97598
2183.25    0.97599
2183.50    0.97582
2183.75    0.97581
2184.00    0.97562
2184.25    0.97562
2184.50    0.97543
2184.75    0.97565
2185.00    0.97530
2185.25    0.97568
2185.50    0.97552
2185.75    0.97559
2186.00    0.97549
2186.25    0.97536
2186.50    0.97521
2186.75    0.97515
2187.00    0.97484
2187.25    0.97481
2187.50    0.97490
2187.75    0.97483
2188.00    0.97481
2188.25    0.97444
2188.50    0.97463
2188.75    0.97452
2189.00    0.97444
2189.25    0.97408
2189.50    0.97378
2189.75    0.97386
2190.00    0.97367
2190.25    0.97350
2190.50    0.97326
2190.75    0.97338
2191.00    0.97312
2191.25    0.97301
2191.50    0.97299
2191.75    0.97274
2192.00    0.97249
2192.25    0.97223
2192.50    0.97226
2192.75    0.97186
2193.00    0.97164
2193.25    0.97138
2193.50    0.97132
2193.75    0.97120
2194.00    0.97095
2194.25    0.97078
2194.50    0.97068
2194.75    0.97018
2195.00    0.97017
2195.25    0.96978
2195.50    0.96954
2195.75    0.96922
2196.00    0.96898
2196.25    0.96881
2196.50    0.96852
2196.75    0.96826
2197.00    0.96837
2197.25    0.96802
2197.50    0.96781
2197.75    0.96745
2198.00    0.96716
2198.25    0.96705
2198.50    0.96677
2198.75    0.96626
2199.00    0.96616
2199.25    0.96584
2199.50    0.96585
2199.75    0.96549
2200.00    0.96510
2200.25    0.96500
2200.50    0.96468
2200.75    0.96445
2201.00    0.96426
2201.25    0.96397
2201.50    0.96359
2201.75    0.96335
2202.00    0.96329
2202.25    0.96305
2202.50    0.96263
2202.75    0.96283
2203.00    0.96229
2203.25    0.96217
2203.50    0.96195
2203.75    0.96179
2204.00    0.96165
2204.25    0.96121
2204.50    0.96112
2204.75    0.96087
2205.00    0.96079
2205.25    0.96059
2205.50    0.96047
2205.75    0.96043
2206.00    0.96025
2206.25    0.96007
2206.50    0.95985
2206.75    0.95960
2207.00    0.95933
2207.25    0.95914
2207.50    0.95926
2207.75    0.95891
2208.00    0.95893
2208.25    0.95890
2208.50    0.95872
2208.75    0.95869
2209.00    0.95854
2209.25    0.95855
2209.50    0.95848
2209.75    0.95833
2210.00    0.95811
2210.25    0.95820
2210.50    0.95812
2210.75    0.95812
2211.00    0.95792
2211.25    0.95793
2211.50    0.95793
2211.75    0.95810
2212.00    0.95800
2212.25    0.95808
2212.50    0.95785
2212.75    0.95799
2213.00    0.95792
2213.25    0.95779
2213.50    0.95788
2213.75    0.95796
2214.00    0.95810
2214.25    0.95799
2214.50    0.95826
2214.75    0.95816
2215.00    0.95823
2215.25    0.95829
2215.50    0.95837
2215.75    0.95826
2216.00    0.95822
2216.25    0.95820
2216.50    0.95840
2216.75    0.95853
2217.00    0.95864
2217.25    0.95881
2217.50    0.95909
2217.75    0.95919
2218.00    0.95919
2218.25    0.95908
2218.50    0.95932
2218.75    0.95941
2219.00    0.95937
2219.25    0.95951
2219.50    0.95963
2219.75    0.95957
2220.00    0.95968
2220.25    0.95982
2220.50    0.95984
2220.75    0.96014
2221.00    0.96032
2221.25    0.96037
2221.50    0.96037
2221.75    0.96036
2222.00    0.96036
2222.25    0.96053
2222.50    0.96060
2222.75    0.96064
2223.00    0.96080
2223.25    0.96102
2223.50    0.96109
2223.75    0.96121
2224.00    0.96120
2224.25    0.96135
2224.50    0.96118
2224.75    0.96151
2225.00    0.96139
2225.25    0.96158
2225.50    0.96142
2225.75    0.96155
2226.00    0.96157
2226.25    0.96154
2226.50    0.96186
2226.75    0.96186
2227.00    0.96200
2227.25    0.96201
2227.50    0.96199
2227.75    0.96199
2228.00    0.96190
2228.25    0.96204
2228.50    0.96197
2228.75    0.96195
2229.00    0.96207
2229.25    0.96217
2229.50    0.96236
2229.75    0.96211
2230.00    0.96233
2230.25    0.96223
2230.50    0.96211
2230.75    0.96212
2231.00    0.96197
2231.25    0.96196
2231.50    0.96181
2231.75    0.96185
2232.00    0.96161
2232.25    0.96194
2232.50    0.96178
2232.75    0.96180
2233.00    0.96187
2233.25    0.96157
2233.50    0.96174
2233.75    0.96135
2234.00    0.96144
2234.25    0.96130
2234.50    0.96112
2234.75    0.96137
2235.00    0.96105
2235.25    0.96110
2235.50    0.96092
2235.75    0.96112
2236.00    0.96111
2236.25    0.96068
2236.50    0.96073
2236.75    0.96063
2237.00    0.96047
2237.25    0.96041
2237.50    0.96049
2237.75    0.96028
2238.00    0.96044
2238.25    0.96016
2238.50    0.96027
2238.75    0.96023
2239.00    0.96017
2239.25    0.96000
2239.50    0.96018
2239.75    0.95996
2240.00    0.95982
2240.25    0.95979
2240.50    0.95982
2240.75    0.95963
2241.00    0.96002
2241.25    0.95963
2241.50    0.95968
2241.75    0.95997
2242.00    0.95985
2242.25    0.95986
2242.50    0.95983
2242.75    0.95967
2243.00    0.95975
2243.25    0.95961
2243.50    0.95964
2243.75    0.95972
2244.00    0.95981
2244.25    0.95995
2244.50    0.95997
2244.75    0.96006
2245.00    0.96001
2245.25    0.96019
2245.50    0.96008
2245.75    0.96004
2246.00    0.96022
2246.25    0.96015
2246.50    0.96026
2246.75    0.96030
2247.00    0.96034
2247.25    0.96058
2247.50    0.96082
2247.75    0.96084
2248.00    0.96106
2248.25    0.96092
2248.50    0.96113
2248.75    0.96106
2249.00    0.96114
2249.25    0.96158
2249.50    0.96151
2249.75    0.96167
2250.00    0.96194
2250.25    0.96198
2250.50    0.96230
2250.75    0.96247
2251.00    0.96265
2251.25    0.96286
2251.50    0.96295
2251.75    0.96307
2252.00    0.96305
2252.25    0.96349
2252.50    0.96369
2252.75    0.96379
2253.00    0.96413
2253.25    0.96410
2253.50    0.96459
2253.75    0.96465
2254.00    0.96496
2254.25    0.96524
2254.50    0.96546
2254.75    0.96554
2255.00    0.96545
2255.25    0.96580
2255.50    0.96600
2255.75    0.96624
2256.00    0.96637
2256.25    0.96669
2256.50    0.96698
2256.75    0.96721
2257.00    0.96728
2257.25    0.96750
2257.50    0.96781
2257.75    0.96778
2258.00    0.96820
2258.25    0.96818
2258.50    0.96865
2258.75    0.96840
2259.00    0.96893
2259.25    0.96923
2259.50    0.96946
2259.75    0.96959
2260.00    0.97000
2260.25    0.96964
2260.50    0.97024
2260.75    0.97055
2261.00    0.97068
2261.25    0.97061
2261.50    0.97076
2261.75    0.97104
2262.00    0.97126
2262.25    0.97155
2262.50    0.97156
2262.75    0.97188
2263.00    0.97200
2263.25    0.97185
2263.50    0.97213
2263.75    0.97223
2264.00    0.97244
2264.25    0.97252
2264.50    0.97262
2264.75    0.97275
2265.00    0.97294
2265.25    0.97298
2265.50    0.97305
2265.75    0.97325
2266.00    0.97329
2266.25    0.97350
2266.50    0.97336
2266.75    0.97353
2267.00    0.97334
2267.25    0.97341
2267.50    0.97350
2267.75    0.97354
2268.00    0.97337
2268.25    0.97344
2268.50    0.97354
2268.75    0.97350
2269.00    0.97332
2269.25    0.97329
2269.50    0.97333
2269.75    0.97333
2270.00    0.97302
2270.25    0.97312
2270.50    0.97293
2270.75    0.97287
2271.00    0.97270
2271.25    0.97287
2271.50    0.97264
2271.75    0.97243
2272.00    0.97214
2272.25    0.97216
2272.50    0.97190
2272.75    0.97155
2273.00    0.97127
2273.25    0.97111
2273.50    0.97051
2273.75    0.97062
2274.00    0.97029
2274.25    0.97005
2274.50    0.96971
2274.75    0.96953
2275.00    0.96903
2275.25    0.96874
2275.50    0.96809
2275.75    0.96770
2276.00    0.96718
2276.25    0.96656
2276.50    0.96615
2276.75    0.96564
2277.00    0.96521
2277.25    0.96438
2277.50    0.96402
2277.75    0.96324
2278.00    0.96250
2278.25    0.96167
2278.50    0.96113
2278.75    0.96040
2279.00    0.95926
2279.25    0.95873
2279.50    0.95746
2279.75    0.95641
2280.00    0.95576
2280.25    0.95456
2280.50    0.95403
2280.75    0.95228
2281.00    0.95134
2281.25    0.95003
2281.50    0.94868
2281.75    0.94763
2282.00    0.94607
2282.25    0.94491
2282.50    0.94286
2282.75    0.94145
2283.00    0.93993
2283.25    0.93798
2283.50    0.93677
2283.75    0.93467
2284.00    0.93336
2284.25    0.93090
2284.50    0.92873
2284.75    0.92674
2285.00    0.92437
2285.25    0.92260
2285.50    0.91974
2285.75    0.91753
2286.00    0.91506
2286.25    0.91232
2286.50    0.91023
2286.75    0.90664
2287.00    0.90452
2287.25    0.90128
2287.50    0.89814
2287.75    0.89512
2288.00    0.89146
2288.25    0.88901
2288.50    0.88455
2288.75    0.88154
2289.00    0.87757
2289.25    0.87378
2289.50    0.87015
2289.75    0.86572
2290.00    0.86245
2290.25    0.85733
2290.50    0.85357
2290.75    0.84861
2291.00    0.84431
2291.25    0.83978
2291.50    0.83405
2291.75    0.83007
2292.00    0.82409
2292.25    0.81929
2292.50    0.81403
2292.75    0.80848
2293.00    0.80383
2293.25    0.79657
2293.50    0.79182
2293.75    0.78542
2294.00    0.77915
2294.25    0.77302
2294.50    0.76594
2294.75    0.76080
2295.00    0.75226
2295.25    0.74635
2295.50    0.73950
2295.75    0.73245
2296.00    0.72558
2296.25    0.71715
2296.50    0.71087
2296.75    0.70209
2297.00    0.69502
2297.25    0.68663
2297.50    0.67903
2297.75    0.67151
2298.00    0.66196
2298.25    0.65481
2298.50    0.64579
2298.75    0.63757
2299.00    0.62864
2299.25    0.62028
2299.50    0.61252
2299.75    0.60238
2300.00    0.59422
2300.25    0.58423
2300.50    0.57578
2300.75    0.56657
2301.00    0.55711
2301.25    0.54940
2301.50    0.53863
2301.75    0.52988
2302.00    0.52039
2302.25    0.51093
2302.50    0.50249
2302.75    0.49160
2303.00    0.48396
2303.25    0.47323
2303.50    0.46429
2303.75    0.45455
2304.00    0.44541
2304.25    0.43750
2304.50    0.42644
2304.75    0.41814
2305.00    0.40805
2305.25    0.39946
2305.50    0.39024
2305.75    0.38130
2306.00    0.37361
2306.25    0.36289
2306.50    0.35524
2306.75    0.34561
2307.00    0.33764
2307.25    0.32963
2307.50    0.32043
2307.75    0.31342
2308.00    0.30392
2308.25    0.29660
2308.50    0.28842
2308.75    0.28082
2309.00    0.27383
2309.25    0.26504
2309.50    0.25876
2309.75    0.25069
2310.00    0.24405
2310.25    0.23776
2310.50    0.22931
2310.75    0.22423
2311.00    0.21651
2311.25    0.21091
2311.50    0.20478
2311.75    0.19817
2312.00    0.19288
2312.25    0.18621
2312.50    0.18146
2312.75    0.17523
2313.00    0.17036
2313.25    0.16529
2313.50    0.15973
2313.75    0.15547
2314.00    0.14977
2314.25    0.14566
2314.50    0.14106
2314.75    0.13634
2315.00    0.13260
2315.25    0.12768
2315.50    0.12394
2315.75    0.11957
2316.00    0.11611
2316.25    0.11260
2316.50    0.10842
2316.75    0.10554
2317.00    0.10145
2317.25    0.09866
2317.50    0.09515
2317.75    0.09196
2318.00    0.08944
2318.25    0.08606
2318.50    0.08377
2318.75    0.08043
2319.00    0.07819
2319.25    0.07556
2319.50    0.07305
2319.75    0.07104
2320.00    0.06819
2320.25    0.06633
2320.50    0.06402
2320.75    0.06204
2321.00    0.06009
2321.25    0.05790
2321.50    0.05635
2321.75    0.05432
2322.00    0.05280
2322.25    0.05087
2322.50    0.04928
2322.75    0.04784
2323.00    0.04611
2323.25    0.04485
2323.50    0.04323
2323.75    0.04206
2324.00    0.04058
2324.25    0.03914
2324.50    0.03810
2324.75    0.03677
2325.00    0.03579
2325.25    0.03454
2325.50    0.03355
2325.75    0.03250
2326.00    0.03139
2326.25    0.03058
2326.50    0.02944
2326.75    0.02878
2327.00    0.02780
2327.25    0.02685
2327.50    0.02615
2327.75    0.02523
2328.00    0.02451
2328.25    0.02371
2328.50    0.02313
2328.75    0.02242
2329.00    0.02168
2329.25    0.02111
2329.50    0.02039
2329.75    0.01985
2330.00    0.01920
2330.25    0.01876
2330.50    0.01818
2330.75    0.01760
2331.00    0.01715
2331.25    0.01649
2331.50    0.01619
2331.75    0.01564
2332.00    0.01518
2332.25    0.01480
2332.50    0.01427
2332.75    0.01394
2333.00    0.01351
2333.25    0.01317
2333.50    0.01290
2333.75    0.01239
2334.00    0.01215
2334.25    0.01174
2334.50    0.01148
2334.75    0.01106
2335.00    0.01087
2335.25    0.01063
2335.50    0.01026
2335.75    0.01007
2336.00    0.00974
2336.25    0.00949
2336.50    0.00918
2336.75    0.00903
2337.00    0.00877
2337.25    0.00854
2337.50    0.00830
2337.75    0.00806
2338.00    0.00789
2338.25    0.00766
2338.50    0.00747
2338.75    0.00723
2339.00    0.00710
2339.25    0.00697
2339.50    0.00678
2339.75    0.00664
2340.00    0.00646
2340.25    0.00626
2340.50    0.00609
2340.75    0.00597
2341.00    0.00583
2341.25    0.00569
2341.50    0.00562
2341.75    0.00544
2342.00    0.00536
2342.25    0.00524
2342.50    0.00501
2342.75    0.00497
2343.00    0.00484
2343.25    0.00472
2343.50    0.00463
2343.75    0.00449
2344.00    0.00445
2344.25    0.00433
2344.50    0.00420
2344.75    0.00414
2345.00    0.00410
2345.25    0.00398
2345.50    0.00384
2345.75    0.00377
2346.00    0.00366
2346.25    0.00359
2346.50    0.00355
2346.75    0.00349
2347.00    0.00342
2347.25    0.00326
2347.50    0.00323
2347.75    0.00318
2348.00    0.00310
2348.25    0.00310
2348.50    0.00303
2348.75    0.00294
2349.00    0.00288
2349.25    0.00283
2349.50    0.00278
2349.75    0.00264
2350.00    0.00266
2350.25    0.00261
2350.50    0.00261
2350.75    0.00249
2351.00    0.00240
2351.25    0.00232
2351.50    0.00234
2351.75    0.00234
2352.00    0.00228
2352.25    0.00222
2352.50    0.00222
2352.75    0.00217
2353.00    0.00209
2353.25    0.00203
2353.50    0.00204
2353.75    0.00202
2354.00    0.00200
2354.25    0.00192
2354.50    0.00192
2354.75    0.00185
2355.00    0.00178
2355.25    0.00174
2355.50    0.00170
2355.75    0.00167
2356.00    0.00169
2356.25    0.00168
2356.50    0.00163
2356.75    0.00162
2357.00    0.00160
2357.25    0.00153
2357.50    0.00153
2357.75    0.00149
2358.00    0.00148
2358.25    0.00150
2358.50    0.00136
2358.75    0.00137
2359.00    0.00137
2359.25    0.00136
2359.50    0.00139
2359.75    0.00128
2360.00    0.00123
2360.25    0.00127
2360.50    0.00123
2360.75    0.00125
2361.00    0.00123
2361.25    0.00122
2361.50    0.00116
2361.75    0.00112
2362.00    0.00113
2362.25    0.00108
2362.50    0.00109
2362.75    0.00110
2363.00    0.00110
2363.25    0.00110
2363.50    0.00107
2363.75    0.00098
2364.00    0.00098
2364.25    0.00104
2364.50    0.00096
2364.75    0.00095
2365.00    0.00089
2365.25    0.00094
2365.50    0.00090
2365.75    0.00099
2366.00    0.00091
2366.25    0.00093
2366.50    0.00083
2366.75    0.00081
2367.00    0.00087
2367.25    0.00088
2367.50    0.00085
2367.75    0.00084
2368.00    0.00079
2368.25    0.00085
2368.50    0.00082
2368.75    0.00076
2369.00    0.00074
2369.25    0.00079
2369.50    0.00076
2369.75    0.00077
2370.00    0.00069
2370.25    0.00070
2370.50    0.00071
2370.75    0.00065
2371.00    0.00064
2371.25    0.00069
2371.50    0.00070
2371.75    0.00066
2372.00    0.00066
2372.25    0.00066
2372.50    0.00063
2372.75    0.00061
2373.00    0.00062
2373.25    0.00059
2373.50    0.00060
2373.75    0.00057
2374.00    0.00053
2374.25    0.00056
2374.50    0.00058
2374.75    0.00060
2375.00    0.00053
2375.25    0.00054
2375.50    0.00052
2375.75    0.00057
2376.00    0.00050
2376.25    0.00050
2376.50    0.00053
2376.75    0.00056
2377.00    0.00049
2377.25    0.00048
2377.50    0.00050
2377.75    0.00052
2378.00    0.00046
2378.25    0.00051
2378.50    0.00043
2378.75    0.00051
2379.00    0.00049
2379.25    0.00047
2379.50    0.00047
2379.75    0.00043
2380.00    0.00047
2380.25    0.00045
2380.50    0.00044
2380.75    0.00043
2381.00    0.00040
2381.25    0.00037
2381.50    0.00039
2381.75    0.00042
2382.00    0.00038
2382.25    0.00038
2382.50    0.00041
2382.75    0.00043
2383.00    0.00045
2383.25    0.00037
2383.50    0.00037
2383.75    0.00033
2384.00    0.00029
2384.25    0.00039
2384.50    0.00034
2384.75    0.00039
2385.00    0.00033
2385.25    0.00032
2385.50    0.00034
2385.75    0.00040
2386.00    0.00037
2386.25    0.00032
2386.50    0.00034
2386.75    0.00031
2387.00    0.00032
2387.25    0.00030
2387.50    0.00030
2387.75    0.00032
2388.00    0.00030
2388.25    0.00032
2388.50    0.00030
2388.75    0.00027
2389.00    0.00026
2389.25    0.00029
2389.50    0.00031
2389.75    0.00032
2390.00    0.00034
2390.25    0.00027
2390.50    0.00030
2390.75    0.00031
2391.00    0.00032
2391.25    0.00030
2391.50    0.00032
2391.75    0.00031
2392.00    0.00026
2392.25    0.00029
2392.50    0.00030
2392.75    0.00026
2393.00    0.00022
2393.25    0.00028
2393.50    0.00029
2393.75    0.00026
2394.00    0.00029
2394.25    0.00027
2394.50    0.00026
2394.75    0.00033
2395.00    0.00028
2395.25    0.00026
2395.50    0.00022
2395.75    0.00027
2396.00    0.00026
2396.25    0.00024
2396.50    0.00026
2396.75    0.00020
2397.00    0.00021
2397.25    0.00026
2397.50    0.00023
2397.75    0.00025
2398.00    0.00021
2398.25    0.00018
2398.50    0.00023
2398.75    0.00028
2399.00    0.00023
2399.25    0.00020
2399.50    0.00027
2399.75    0.00023
2400.00    0.00021
2400.25    0.00021
2400.50    0.00019
2400.75    0.00020
2401.00    0.00022
2401.25    0.00023
2401.50    0.00021
2401.75    0.00023
2402.00    0.00017
2402.25    0.00020
2402.50    0.00027
2402.75    0.00020
2403.00    0.00023
2403.25    0.00018
2403.50    0.00024
2403.75    0.00020
2404.00    0.00026
2404.25    0.00024
2404.50    0.00019
2404.75    0.00017
2405.00    0.00021
2405.25    0.00018
2405.50    0.00023
2405.75    0.00027
2406.00    0.00019
2406.25    0.00018
2406.50    0.00018
2406.75    0.00017
2407.00    0.00017
2407.25    0.00016
2407.50    0.00020
2407.75    0.00017
2408.00    0.00019
2408.25    0.00015
2408.50    0.00014
2408.75    0.00014
2409.00    0.00024
2409.25    0.00016
2409.50    0.00016
2409.75    0.00021
2410.00    0.00024
2410.25    0.00017
2410.50    0.00024
2410.75    0.00022
2411.00    0.00015
2411.25    0.00016
2411.50    0.00019
2411.75    0.00011
2412.00    0.00020
2412.25    0.00022
2412.50    0.00011
2412.75    0.00019
2413.00    0.00016
2413.25    0.00020
2413.50    0.00019
2413.75    0.00021
2414.00    0.00012
2414.25    0.00017
2414.50    0.00017
2414.75    0.00021
2415.00    0.00019
2415.25    0.00013
2415.50    0.00018
2415.75    0.00016
2416.00    0.00015
2416.25    0.00016
2416.50    0.00020
2416.75    0.00022
2417.00    0.00016
2417.25    0.00013
2417.50    0.00023
2417.75    0.00013
2418.00    0.00015
2418.25    0.00021
2418.50    0.00021
2418.75    0.00009
2419.00    0.00017
2419.25    0.00012
2419.50    0.00019
2419.75    0.00022
2420.00    0.00016
2420.25    0.00020
2420.50    0.00019
2420.75    0.00014
2421.00    0.00011
2421.25    0.00019
2421.50    0.00023
2421.75    0.00021
2422.00    0.00014
2422.25    0.00014
2422.50    0.00016
2422.75    0.00015
2423.00    0.00011
2423.25    0.00020
2423.50    0.00014
2423.75    0.00014
2424.00    0.00018
2424.25    0.00015
2424.50    0.00019
2424.75    0.00012
2425.00    0.00014
2425.25    0.00025
2425.50    0.00017
2425.75    0.00014
2426.00    0.00017
2426.25    0.00015
2426.50    0.00013
2426.75    0.00015
2427.00    0.00012
2427.25    0.00016
2427.50    0.00014
2427.75    0.00014
2428.00    0.00014
2428.25    0.00010
2428.50    0.00020
2428.75    0.00014
2429.00    0.00019
2429.25    0.00015
2429.50    0.00011
2429.75    0.00015
2430.00    0.00020
2430.25    0.00012
2430.50    0.00014
2430.75    0.00017
2431.00    0.00015
2431.25    0.00012
2431.50    0.00014
2431.75    0.00017
2432.00    0.00016
2432.25    0.00014
2432.50    0.00021
2432.75    0.00012
2433.00    0.00013
2433.25    0.00015
2433.50    0.00017
2433.75    0.00016
2434.00    0.00012
2434.25    0.00010
2434.50    0.00012
2434.75    0.00016
2435.00    0.00014
2435.25    0.00017
2435.50    0.00021
2435.75    0.00020
2436.00    0.00010
2436.25    0.00017
2436.50    0.00012
2436.75    0.00017
2437.00    0.00018
2437.25    0.00006
2437.50    0.00008
2437.75    0.00012
2438.00    0.00014
2438.25    0.00015
2438.50    0.00017
2438.75    0.00017
2439.00    0.00010
2439.25    0.00010
2439.50    0.00017
2439.75    0.00013
2440.00    0.00013
2440.25    0.00013
2440.50    0.00013
2440.75    0.00014
2441.00    0.00011
2441.25    0.00014
2441.50    0.00011
2441.75    0.00016
2442.00    0.00011
2442.25    0.00014
2442.50    0.00010
2442.75    0.00013
2443.00    0.00014
2443.25    0.00010
2443.50    0.00013
2443.75    0.00012
2444.00    0.00014
2444.25    0.00012
2444.50    0.00014
2444.75    0.00011
2445.00    0.00015
2445.25    0.00013
2445.50    0.00008
2445.75    0.00014
2446.00    0.00014
2446.25    0.00013
2446.50    0.00014
2446.75    0.00013
2447.00    0.00011
2447.25    0.00014
2447.50    0.00010
2447.75    0.00013
2448.00    0.00013
2448.25    0.00013
2448.50    0.00014
2448.75    0.00013
2449.00    0.00013
2449.25    0.00016
2449.50    0.00016
2449.75    0.00020
2450.00    0.00017
2450.25    0.00008
2450.50    0.00012
2450.75    0.00013
2451.00    0.00015
2451.25    0.00015
2451.50    0.00015
2451.75    0.00012
2452.00    0.00021
2452.25    0.00013
2452.50    0.00016
2452.75    0.00011
2453.00    0.00013
2453.25    0.00016
2453.50    0.00013
2453.75    0.00010
2454.00    0.00016
2454.25    0.00012
2454.50    0.00018
2454.75    0.00014
2455.00    0.00011
2455.25    0.00011
2455.50    0.00006
2455.75    0.00008
2456.00    0.00018
2456.25    0.00014
2456.50    0.00018
2456.75    0.00022
2457.00    0.00014
2457.25    0.00011
2457.50    0.00015
2457.75    0.00017
2458.00    0.00014
2458.25    0.00014
2458.50    0.00010
2458.75    0.00008
2459.00    0.00012
2459.25    0.00014
2459.50    0.00018
2459.75    0.00017
2460.00    0.00011
2460.25    0.00013
2460.50    0.00009
2460.75    0.00007
2461.00    0.00011
2461.25    0.00012
2461.50    0.00011
2461.75    0.00015
2462.00    0.00015
2462.25    0.00013
2462.50    0.00016
2462.75    0.00014
2463.00    0.00014
2463.25    0.00010
2463.50    0.00012
2463.75    0.00007
2464.00    0.00017
2464.25    0.00013
2464.50    0.00007
2464.75    0.00022
2465.00    0.00015
2465.25    0.00012
2465.50    0.00015
2465.75    0.00016
2466.00    0.00013
2466.25    0.00016
2466.50    0.00018
2466.75    0.00016
2467.00    0.00011
2467.25    0.00014
2467.50    0.00013
2467.75    0.00009
2468.00    0.00010
2468.25    0.00013
2468.50    0.00010
2468.75    0.00009
2469.00    0.00012
2469.25    0.00006
2469.50    0.00012
2469.75    0.00011
2470.00    0.00019
2480.00    0.00000
2490.00    0.00000
