# Filter ID: ED205-1
# Gemini Filter Name: Z_G1101
# 42mm diameter BK7 5.17mm thickness
# Central Wavelength: 1.015 um
# Note: Measurements taken at room temp and then 
# calculated to 70K using correlation measurements from Cold test witness
# Created: 2012aug16
# Author: R. Carrasco
# Lambda(nm) Transmission
 820.00    0.00000
 830.00    0.00000
 841.00    0.00001
 841.50    0.00001
 842.00    0.00001
 842.50    0.00001
 843.00    0.00000
 843.50    0.00000
 844.00    0.00000
 844.50    0.00001
 845.00    0.00001
 845.50    0.00002
 846.00    0.00000
 846.50    0.00002
 847.00    0.00001
 847.50    0.00001
 848.00    0.00002
 848.50    0.00000
 849.00    0.00001
 849.50    0.00001
 850.00    0.00001
 850.50    0.00002
 851.00    0.00002
 851.50    0.00003
 852.00    0.00001
 852.50    0.00001
 853.00    0.00001
 853.50    0.00002
 854.00    0.00000
 854.50    0.00003
 855.00    0.00000
 855.50    0.00000
 856.00    0.00001
 856.50    0.00002
 857.00    0.00000
 857.50    0.00002
 858.00    0.00002
 858.50    0.00001
 859.00    0.00003
 859.50    0.00001
 860.00    0.00001
 860.50    0.00001
 861.00    0.00000
 861.50    0.00001
 862.00    0.00000
 862.50    0.00002
 863.00    0.00002
 863.50    0.00001
 864.00    0.00004
 864.50    0.00001
 865.00    0.00001
 865.50    0.00004
 866.00    0.00008
 866.50    0.00001
 867.00    0.00002
 867.50    0.00003
 868.00    0.00002
 868.50    0.00001
 869.00    0.00010
 869.50    0.00000
 870.00    0.00003
 870.50    0.00002
 871.00    0.00008
 871.50    0.00000
 872.00    0.00005
 872.50    0.00001
 873.00    0.00011
 873.50    0.00009
 874.00    0.00002
 874.50    0.00003
 875.00    0.00010
 875.50    0.00006
 876.00    0.00015
 876.50    0.00001
 877.00    0.00022
 877.50    0.00002
 878.00    0.00014
 878.50    0.00054
 879.00    0.00009
 879.50    0.00009
 880.00    0.00038
 880.50    0.00038
 881.00    0.00008
 881.50    0.00025
 882.00    0.00038
 882.50    0.00008
 883.00    0.00052
 883.50    0.00017
 884.00    0.00082
 884.50    0.00014
 885.00    0.00023
 885.50    0.00103
 886.00    0.00073
 886.50    0.00005
 887.00    0.00073
 887.50    0.00087
 888.00    0.00060
 888.50    0.00025
 889.00    0.00038
 889.50    0.00021
 890.00    0.00091
 890.50    0.00068
 891.00    0.00043
 891.50    0.00030
 892.00    0.00117
 892.50    0.00004
 893.00    0.00064
 893.50    0.00072
 894.00    0.00027
 894.50    0.00005
 895.00    0.00047
 895.50    0.00081
 896.00    0.00016
 896.50    0.00085
 897.00    0.00005
 897.50    0.00060
 898.00    0.00017
 898.50    0.00017
 899.00    0.00099
 899.50    0.00080
 900.00    0.00073
 900.50    0.00068
 901.00    0.00042
 901.50    0.00030
 902.00    0.00068
 902.50    0.00073
 903.00    0.00038
 903.50    0.00164
 904.00    0.00151
 904.50    0.00094
 905.00    0.00065
 905.50    0.00119
 906.00    0.00168
 906.50    0.00115
 907.00    0.00129
 907.50    0.00203
 908.00    0.00170
 908.50    0.00265
 909.00    0.00228
 909.50    0.00214
 910.00    0.00306
 910.50    0.00273
 911.00    0.00276
 911.50    0.00357
 912.00    0.00389
 912.50    0.00471
 913.00    0.00528
 913.50    0.00577
 914.00    0.00678
 914.50    0.00745
 915.00    0.00849
 915.50    0.00973
 916.00    0.01069
 916.50    0.01223
 917.00    0.01350
 917.50    0.01647
 918.00    0.01889
 918.50    0.02237
 919.00    0.02547
 919.50    0.02991
 920.00    0.03430
 920.50    0.04029
 921.00    0.04807
 921.50    0.05650
 922.00    0.06658
 922.50    0.07675
 923.00    0.08907
 923.50    0.10392
 924.00    0.12116
 924.50    0.14124
 925.00    0.16281
 925.50    0.18434
 926.00    0.20733
 926.50    0.23327
 927.00    0.26032
 927.50    0.28953
 928.00    0.31523
 928.50    0.34036
 929.00    0.36408
 929.50    0.38821
 930.00    0.41069
 930.50    0.43353
 931.00    0.45405
 931.50    0.47135
 932.00    0.48851
 932.50    0.50332
 933.00    0.51657
 933.50    0.52905
 934.00    0.54039
 934.50    0.55092
 935.00    0.55848
 935.50    0.56299
 936.00    0.56762
 936.50    0.57187
 937.00    0.57286
 937.50    0.57581
 938.00    0.57468
 938.50    0.57496
 939.00    0.57405
 939.50    0.57338
 940.00    0.57305
 940.50    0.57281
 941.00    0.57307
 941.50    0.57443
 942.00    0.57580
 942.50    0.57865
 943.00    0.58161
 943.50    0.58718
 944.00    0.59063
 944.50    0.59590
 945.00    0.60098
 945.50    0.60904
 946.00    0.61504
 946.50    0.62487
 947.00    0.63038
 947.50    0.63880
 948.00    0.64644
 948.50    0.65367
 949.00    0.66021
 949.50    0.66690
 950.00    0.67404
 950.50    0.67887
 951.00    0.68243
 951.50    0.68608
 952.00    0.69044
 952.50    0.69062
 953.00    0.69251
 953.50    0.69388
 954.00    0.69355
 954.50    0.69304
 955.00    0.69355
 955.50    0.69221
 956.00    0.69146
 956.50    0.69020
 957.00    0.68945
 957.50    0.68985
 958.00    0.68891
 958.50    0.68879
 959.00    0.68937
 959.50    0.68898
 960.00    0.69110
 960.50    0.69160
 961.00    0.69424
 961.50    0.69501
 962.00    0.69655
 962.50    0.69940
 963.00    0.70317
 963.50    0.70605
 964.00    0.70742
 964.50    0.71012
 965.00    0.71347
 965.50    0.71629
 966.00    0.71853
 966.50    0.72172
 967.00    0.72387
 967.50    0.72473
 968.00    0.72642
 968.50    0.72990
 969.00    0.73168
 969.50    0.73399
 970.00    0.73390
 970.50    0.73646
 971.00    0.73603
 971.50    0.73824
 972.00    0.73876
 972.50    0.73878
 973.00    0.74101
 973.50    0.74131
 974.00    0.74214
 974.50    0.74333
 975.00    0.74255
 975.50    0.74470
 976.00    0.74505
 976.50    0.74519
 977.00    0.74633
 977.50    0.74624
 978.00    0.74786
 978.50    0.74896
 979.00    0.74793
 979.50    0.75045
 980.00    0.75140
 980.50    0.75182
 981.00    0.75204
 981.50    0.75268
 982.00    0.75242
 982.50    0.75426
 983.00    0.75418
 983.50    0.75541
 984.00    0.75344
 984.50    0.75486
 985.00    0.75645
 985.50    0.75705
 986.00    0.75662
 986.50    0.75675
 987.00    0.75612
 987.50    0.75734
 988.00    0.75677
 988.50    0.75733
 989.00    0.75687
 989.50    0.75667
 990.00    0.75570
 990.50    0.75668
 991.00    0.75645
 991.50    0.75716
 992.00    0.75662
 992.50    0.75595
 993.00    0.75649
 993.50    0.75722
 994.00    0.75590
 994.50    0.75644
 995.00    0.75719
 995.50    0.75750
 996.00    0.75893
 996.50    0.75970
 997.00    0.75999
 997.50    0.76008
 998.00    0.76233
 998.50    0.76235
 999.00    0.76196
 999.50    0.76518
1000.00    0.76512
1000.50    0.76551
1001.00    0.76565
1001.50    0.76548
1002.00    0.76872
1002.50    0.76889
1003.00    0.76971
1003.50    0.77097
1004.00    0.77215
1004.50    0.77072
1005.00    0.77352
1005.50    0.77405
1006.00    0.77383
1006.50    0.77411
1007.00    0.77488
1007.50    0.77537
1008.00    0.77369
1008.50    0.77614
1009.00    0.77594
1009.50    0.77525
1010.00    0.77717
1010.50    0.77550
1011.00    0.77619
1011.50    0.77586
1012.00    0.77541
1012.50    0.77490
1013.00    0.77477
1013.50    0.77597
1014.00    0.77565
1014.50    0.77498
1015.00    0.77634
1015.50    0.77623
1016.00    0.77702
1016.50    0.77698
1017.00    0.77713
1017.50    0.77838
1018.00    0.77977
1018.50    0.77983
1019.00    0.78082
1019.50    0.78138
1020.00    0.78271
1020.50    0.78383
1021.00    0.78590
1021.50    0.78551
1022.00    0.78715
1022.50    0.78816
1023.00    0.79111
1023.50    0.79258
1024.00    0.79284
1024.50    0.79410
1025.00    0.79437
1025.50    0.79435
1026.00    0.79597
1026.50    0.79758
1027.00    0.79794
1027.50    0.79676
1028.00    0.79821
1028.50    0.79896
1029.00    0.79585
1029.50    0.79920
1030.00    0.79740
1030.50    0.79687
1031.00    0.79494
1031.50    0.79504
1032.00    0.79197
1032.50    0.79241
1033.00    0.79011
1033.50    0.78751
1034.00    0.78682
1034.50    0.78479
1035.00    0.78377
1035.50    0.78146
1036.00    0.77973
1036.50    0.77836
1037.00    0.77647
1037.50    0.77628
1038.00    0.77383
1038.50    0.77257
1039.00    0.76990
1039.50    0.77174
1040.00    0.77100
1040.50    0.76919
1041.00    0.76861
1041.50    0.76940
1042.00    0.76814
1042.50    0.76901
1043.00    0.77127
1043.50    0.76952
1044.00    0.77089
1044.50    0.77423
1045.00    0.77532
1045.50    0.77551
1046.00    0.77609
1046.50    0.77765
1047.00    0.77908
1047.50    0.78109
1048.00    0.78410
1048.50    0.78563
1049.00    0.79022
1049.50    0.78967
1050.00    0.79277
1050.50    0.79543
1051.00    0.79716
1051.50    0.80061
1052.00    0.80175
1052.50    0.80329
1053.00    0.80362
1053.50    0.80674
1054.00    0.80980
1054.50    0.81046
1055.00    0.81141
1055.50    0.81389
1056.00    0.81486
1056.50    0.81285
1057.00    0.81403
1057.50    0.81497
1058.00    0.81553
1058.50    0.81521
1059.00    0.81481
1059.50    0.81576
1060.00    0.81615
1060.50    0.81514
1061.00    0.81716
1061.50    0.81565
1062.00    0.81547
1062.50    0.81523
1063.00    0.81449
1063.50    0.81331
1064.00    0.81349
1064.50    0.81345
1065.00    0.81346
1065.50    0.81279
1066.00    0.81254
1066.50    0.81207
1067.00    0.81208
1067.50    0.81361
1068.00    0.81378
1068.50    0.81291
1069.00    0.81697
1069.50    0.81618
1070.00    0.81586
1070.50    0.81701
1071.00    0.81814
1071.50    0.81964
1072.00    0.81981
1072.50    0.82045
1073.00    0.82256
1073.50    0.82315
1074.00    0.82323
1074.50    0.82529
1075.00    0.82634
1075.50    0.82488
1076.00    0.82455
1076.50    0.82458
1077.00    0.82521
1077.50    0.82573
1078.00    0.82539
1078.50    0.82538
1079.00    0.82266
1079.50    0.82304
1080.00    0.82285
1080.50    0.82065
1081.00    0.81968
1081.50    0.81675
1082.00    0.81361
1082.50    0.80984
1083.00    0.80571
1083.50    0.80007
1084.00    0.79613
1084.50    0.79161
1085.00    0.78204
1085.50    0.77489
1086.00    0.76519
1086.50    0.75668
1087.00    0.74725
1087.50    0.73230
1088.00    0.71912
1088.50    0.70272
1089.00    0.68382
1089.50    0.66766
1090.00    0.64682
1090.50    0.62590
1091.00    0.60375
1091.50    0.57637
1092.00    0.54947
1092.50    0.51998
1093.00    0.49265
1093.50    0.46622
1094.00    0.43643
1094.50    0.40663
1095.00    0.37493
1095.50    0.34453
1096.00    0.31730
1096.50    0.29060
1097.00    0.26585
1097.50    0.24073
1098.00    0.21657
1098.50    0.19483
1099.00    0.17594
1099.50    0.15788
1100.00    0.14175
1100.50    0.12626
1101.00    0.11180
1101.50    0.09976
1102.00    0.08837
1102.50    0.07905
1103.00    0.07076
1103.50    0.06323
1104.00    0.05674
1104.50    0.04998
1105.00    0.04453
1105.50    0.03907
1106.00    0.03537
1106.50    0.03172
1107.00    0.02809
1107.50    0.02547
1108.00    0.02242
1108.50    0.02034
1109.00    0.01766
1109.50    0.01593
1110.00    0.01515
1110.50    0.01278
1111.00    0.01258
1111.50    0.01095
1112.00    0.01016
1112.50    0.00891
1113.00    0.00810
1113.50    0.00684
1114.00    0.00707
1114.50    0.00613
1115.00    0.00584
1115.50    0.00520
1116.00    0.00555
1116.50    0.00440
1117.00    0.00430
1117.50    0.00346
1118.00    0.00295
1118.50    0.00309
1119.00    0.00320
1119.50    0.00277
1120.00    0.00205
1120.50    0.00248
1121.00    0.00181
1121.50    0.00160
1122.00    0.00151
1122.50    0.00169
1123.00    0.00155
1123.50    0.00162
1124.00    0.00082
1124.50    0.00142
1125.00    0.00110
1125.50    0.00150
1126.00    0.00069
1126.50    0.00105
1127.00    0.00128
1127.50    0.00126
1128.00    0.00056
1128.50    0.00109
1129.00    0.00071
1129.50    0.00090
1130.00    0.00069
1130.50    0.00056
1131.00    0.00028
1131.50    0.00101
1132.00    0.00109
1132.50    0.00080
1133.00    0.00028
1133.50    0.00073
1134.00    0.00042
1134.50    0.00099
1135.00    0.00045
1135.50    0.00040
1136.00    0.00082
1136.50    0.00020
1137.00    0.00001
1137.50    0.00024
1138.00    0.00011
1138.50    0.00016
1139.00    0.00048
1139.50    0.00028
1140.00    0.00027
1140.50    0.00003
1141.00    0.00016
1141.50    0.00060
1142.00    0.00032
1142.50    0.00052
1143.00    0.00024
1143.50    0.00032
1144.00    0.00024
1144.50    0.00032
1145.00    0.00089
1145.50    0.00068
1146.00    0.00044
1146.50    0.00016
1147.00    0.00001
1147.50    0.00081
1148.00    0.00048
1148.50    0.00024
1149.00    0.00035
1149.50    0.00044
1150.00    0.00032
1150.50    0.00032
1151.00    0.00007
1151.50    0.00007
1152.00    0.00007
1152.50    0.00095
1153.00    0.00064
1153.50    0.00007
1154.00    0.00057
1154.50    0.00076
1155.00    0.00028
1155.50    0.00056
1156.00    0.00005
1156.50    0.00048
1157.00    0.00001
1157.50    0.00015
1158.00    0.00028
1158.50    0.00061
1159.00    0.00003
1159.50    0.00043
1160.00    0.00046
1160.50    0.00013
1161.00    0.00007
1161.50    0.00055
1162.00    0.00053
1162.50    0.00045
1163.00    0.00048
1163.50    0.00047
1164.00    0.00005
1164.50    0.00020
1165.00    0.00035
1165.50    0.00005
1166.00    0.00016
1166.50    0.00009
1167.00    0.00128
1167.50    0.00017
1168.00    0.00072
1168.50    0.00065
1169.00    0.00031
1169.50    0.00028
1170.00    0.00036
1170.50    0.00003
1171.00    0.00084
1171.50    0.00019
1172.00    0.00085
1172.50    0.00036
1173.00    0.00013
1173.50    0.00020
1174.00    0.00001
1174.50    0.00036
1175.00    0.00095
1175.50    0.00028
1176.00    0.00044
1176.50    0.00003
1177.00    0.00060
1177.50    0.00005
1178.00    0.00011
1178.50    0.00076
1179.00    0.00017
1179.50    0.00032
1180.00    0.00024
1180.50    0.00052
1181.00    0.00003
1181.50    0.00028
1182.00    0.00052
1182.50    0.00064
1183.00    0.00077
1183.50    0.00048
1184.00    0.00037
1184.50    0.00024
1185.00    0.00031
1185.50    0.00020
1186.00    0.00028
1186.50    0.00009
1187.00    0.00088
1187.50    0.00028
1188.00    0.00033
1188.50    0.00107
1189.00    0.00029
1189.50    0.00048
1190.00    0.00055
1200.00    0.00000
1210.00    0.00000
